%OpenBCI Raw EEG Data
%Number of channels = 8
%Sample Rate = 250.0 Hz
%First Column = SampleIndex
%Last Column = Timestamp 
%Other Columns = EEG data in microvolts followed by Accel Data (in G) interleaved with Aux Data
0, 0.00, 0.00, 0.00, 0.00, 0.00, 0.00, 0.00, 0.00, 0.034, -0.042, 0.968, 14:28:52.908, 1596054532908
1, 2653.35, 0.00, -1570.81, 0.00, 0.00, 0.00, 0.00, 0.00, 0.000, 0.000, 0.000, 14:28:52.908, 1596054532908
2, 2603.89, 0.00, -1568.02, 0.00, 0.00, 0.00, 0.00, 0.00, 0.000, 0.000, 0.000, 14:28:52.908, 1596054532908
3, 2689.16, 0.00, -1518.64, 0.00, 0.00, 0.00, 0.00, 0.00, 0.000, 0.000, 0.000, 14:28:52.922, 1596054532922
4, 2789.10, 0.00, -1474.23, 0.00, 0.00, 0.00, 0.00, 0.00, 0.000, 0.000, 0.000, 14:28:52.923, 1596054532923
5, 2742.51, 0.00, -1493.59, 0.00, 0.00, 0.00, 0.00, 0.00, 0.000, 0.000, 0.000, 14:28:52.923, 1596054532923
6, 2655.61, 0.00, -1520.50, 0.00, 0.00, 0.00, 0.00, 0.00, 0.000, 0.000, 0.000, 14:28:52.923, 1596054532923
7, 2749.06, 0.00, -1448.59, 0.00, 0.00, 0.00, 0.00, 0.00, 0.000, 0.000, 0.000, 14:28:52.938, 1596054532938
8, 2877.09, 0.00, -1381.09, 0.00, 0.00, 0.00, 0.00, 0.00, 0.034, -0.042, 0.964, 14:28:52.939, 1596054532939
9, 2829.48, 0.00, -1417.39, 0.00, 0.00, 0.00, 0.00, 0.00, 0.000, 0.000, 0.000, 14:28:52.939, 1596054532939
10, 2721.50, 0.00, -1461.47, 0.00, 0.00, 0.00, 0.00, 0.00, 0.000, 0.000, 0.000, 14:28:52.939, 1596054532939
11, 2765.85, 0.00, -1423.27, 0.00, 0.00, 0.00, 0.00, 0.00, 0.000, 0.000, 0.000, 14:28:52.953, 1596054532953
12, 2911.83, 0.00, -1338.60, 0.00, 0.00, 0.00, 0.00, 0.00, 0.000, 0.000, 0.000, 14:28:52.954, 1596054532954
13, 2931.72, 0.00, -1323.78, 0.00, 0.00, 0.00, 0.00, 0.00, 0.000, 0.000, 0.000, 14:28:52.955, 1596054532955
14, 2830.16, 0.00, -1363.10, 0.00, 0.00, 0.00, 0.00, 0.00, 0.000, 0.000, 0.000, 14:28:52.955, 1596054532955
15, 2860.04, 0.00, -1322.13, 0.00, 0.00, 0.00, 0.00, 0.00, 0.000, 0.000, 0.000, 14:28:52.969, 1596054532969
16, 3010.67, 0.00, -1230.53, 0.00, 0.00, 0.00, 0.00, 0.00, 0.000, 0.000, 0.000, 14:28:52.969, 1596054532969
17, 3069.41, 0.00, -1193.11, 0.00, 0.00, 0.00, 0.00, 0.00, 0.036, -0.042, 0.968, 14:28:52.969, 1596054532969
18, 2973.14, 0.00, -1231.31, 0.00, 0.00, 0.00, 0.00, 0.00, 0.000, 0.000, 0.000, 14:28:52.982, 1596054532982
19, 2934.43, 0.00, -1242.18, 0.00, 0.00, 0.00, 0.00, 0.00, 0.000, 0.000, 0.000, 14:28:52.983, 1596054532983
20, 3064.02, 0.00, -1166.02, 0.00, 0.00, 0.00, 0.00, 0.00, 0.000, 0.000, 0.000, 14:28:52.983, 1596054532983
21, 3171.44, 0.00, -1095.84, 0.00, 0.00, 0.00, 0.00, 0.00, 0.000, 0.000, 0.000, 14:28:52.983, 1596054532983
22, 3086.95, 0.00, -1131.20, 0.00, 0.00, 0.00, 0.00, 0.00, 0.000, 0.000, 0.000, 14:28:52.999, 1596054532999
23, 3043.57, 0.00, -1131.13, 0.00, 0.00, 0.00, 0.00, 0.00, 0.000, 0.000, 0.000, 14:28:52.999, 1596054532999
24, 3170.26, 0.00, -1048.52, 0.00, 0.00, 0.00, 0.00, 0.00, 0.000, 0.000, 0.000, 14:28:52.999, 1596054532999
25, 3281.97, 0.00, -986.54, 0.00, 0.00, 0.00, 0.00, 0.00, 0.000, 0.000, 0.000, 14:28:52.999, 1596054532999
26, 3208.35, 0.00, -1022.10, 0.00, 0.00, 0.00, 0.00, 0.00, 0.000, 0.000, 0.000, 14:28:53.013, 1596054533013
27, 3137.31, 0.00, -1038.39, 0.00, 0.00, 0.00, 0.00, 0.00, 0.034, -0.036, 0.976, 14:28:53.013, 1596054533013
28, 3219.05, 0.00, -989.36, 0.00, 0.00, 0.00, 0.00, 0.00, 0.000, 0.000, 0.000, 14:28:53.013, 1596054533013
29, 3356.27, 0.00, -909.51, 0.00, 0.00, 0.00, 0.00, 0.00, 0.000, 0.000, 0.000, 14:28:53.013, 1596054533013
30, 3324.67, 0.00, -917.23, 0.00, 0.00, 0.00, 0.00, 0.00, 0.000, 0.000, 0.000, 14:28:53.029, 1596054533029
31, 3251.42, 0.00, -929.43, 0.00, 0.00, 0.00, 0.00, 0.00, 0.000, 0.000, 0.000, 14:28:53.029, 1596054533029
32, 3358.08, 0.00, -841.36, 0.00, 0.00, 0.00, 0.00, 0.00, 0.000, 0.000, 0.000, 14:28:53.030, 1596054533030
33, 3490.54, 0.00, -769.48, 0.00, 0.00, 0.00, 0.00, 0.00, 0.000, 0.000, 0.000, 14:28:53.042, 1596054533042
34, 3473.10, 0.00, -778.76, 0.00, 0.00, 0.00, 0.00, 0.00, 0.000, 0.000, 0.000, 14:28:53.043, 1596054533043
35, 3391.50, 0.00, -797.04, 0.00, 0.00, 0.00, 0.00, 0.00, 0.000, 0.000, 0.000, 14:28:53.043, 1596054533043
36, 3439.73, 0.00, -751.02, 0.00, 0.00, 0.00, 0.00, 0.00, 0.000, 0.000, 0.000, 14:28:53.043, 1596054533043
37, 3584.57, 0.00, -667.24, 0.00, 0.00, 0.00, 0.00, 0.00, 0.032, -0.040, 0.978, 14:28:53.058, 1596054533058
38, 3634.59, 0.00, -626.63, 0.00, 0.00, 0.00, 0.00, 0.00, 0.000, 0.000, 0.000, 14:28:53.058, 1596054533058
39, 3549.66, 0.00, -649.79, 0.00, 0.00, 0.00, 0.00, 0.00, 0.000, 0.000, 0.000, 14:28:53.058, 1596054533058
40, 3541.10, 0.00, -642.70, 0.00, 0.00, 0.00, 0.00, 0.00, 0.000, 0.000, 0.000, 14:28:53.058, 1596054533058
41, 3676.71, 0.00, -564.87, 0.00, 0.00, 0.00, 0.00, 0.00, 0.000, 0.000, 0.000, 14:28:53.073, 1596054533073
42, 3750.33, 0.00, -517.26, 0.00, 0.00, 0.00, 0.00, 0.00, 0.000, 0.000, 0.000, 14:28:53.073, 1596054533073
43, 3665.40, 0.00, -545.92, 0.00, 0.00, 0.00, 0.00, 0.00, 0.000, 0.000, 0.000, 14:28:53.073, 1596054533073
44, 3661.42, 0.00, -517.80, 0.00, 0.00, 0.00, 0.00, 0.00, 0.000, 0.000, 0.000, 14:28:53.073, 1596054533073
45, 3806.35, 0.00, -424.03, 0.00, 0.00, 0.00, 0.00, 0.00, 0.000, 0.000, 0.000, 14:28:53.088, 1596054533088
46, 3897.94, 0.00, -372.76, 0.00, 0.00, 0.00, 0.00, 0.00, 0.000, 0.000, 0.000, 14:28:53.088, 1596054533088
47, 3835.09, 0.00, -388.70, 0.00, 0.00, 0.00, 0.00, 0.00, 0.030, -0.042, 0.978, 14:28:53.088, 1596054533088
48, 3801.88, 0.00, -376.25, 0.00, 0.00, 0.00, 0.00, 0.00, 0.000, 0.000, 0.000, 14:28:53.103, 1596054533103
49, 3924.07, 0.00, -295.49, 0.00, 0.00, 0.00, 0.00, 0.00, 0.000, 0.000, 0.000, 14:28:53.103, 1596054533103
50, 4053.11, 0.00, -217.73, 0.00, 0.00, 0.00, 0.00, 0.00, 0.000, 0.000, 0.000, 14:28:53.103, 1596054533103
51, 4012.32, 0.00, -223.72, 0.00, 0.00, 0.00, 0.00, 0.00, 0.000, 0.000, 0.000, 14:28:53.103, 1596054533103
52, 3920.29, 0.00, -259.37, 0.00, 0.00, 0.00, 0.00, 0.00, 0.000, 0.000, 0.000, 14:28:53.118, 1596054533118
53, 4024.34, 0.00, -185.05, 0.00, 0.00, 0.00, 0.00, 0.00, 0.000, 0.000, 0.000, 14:28:53.118, 1596054533118
54, 4166.12, 0.00, -101.52, 0.00, 0.00, 0.00, 0.00, 0.00, 0.000, 0.000, 0.000, 14:28:53.118, 1596054533118
55, 4144.46, 0.00, -102.89, 0.00, 0.00, 0.00, 0.00, 0.00, 0.000, 0.000, 0.000, 14:28:53.118, 1596054533118
56, 4077.23, 0.00, -108.07, 0.00, 0.00, 0.00, 0.00, 0.00, 0.000, 0.000, 0.000, 14:28:53.134, 1596054533134
57, 4157.85, 0.00, -42.20, 0.00, 0.00, 0.00, 0.00, 0.00, 0.032, -0.048, 0.970, 14:28:53.134, 1596054533134
58, 4305.88, 0.00, 44.28, 0.00, 0.00, 0.00, 0.00, 0.00, 0.000, 0.000, 0.000, 14:28:53.134, 1596054533134
59, 4311.74, 0.00, 53.93, 0.00, 0.00, 0.00, 0.00, 0.00, 0.000, 0.000, 0.000, 14:28:53.135, 1596054533135
60, 4237.24, 0.00, 42.69, 0.00, 0.00, 0.00, 0.00, 0.00, 0.000, 0.000, 0.000, 14:28:53.148, 1596054533148
61, 4291.83, 0.00, 99.53, 0.00, 0.00, 0.00, 0.00, 0.00, 0.000, 0.000, 0.000, 14:28:53.148, 1596054533148
62, 4462.15, 0.00, 209.46, 0.00, 0.00, 0.00, 0.00, 0.00, 0.000, 0.000, 0.000, 14:28:53.148, 1596054533148
63, 4492.10, 0.00, 226.27, 0.00, 0.00, 0.00, 0.00, 0.00, 0.000, 0.000, 0.000, 14:28:53.163, 1596054533163
64, 4375.47, 0.00, 170.32, 0.00, 0.00, 0.00, 0.00, 0.00, 0.000, 0.000, 0.000, 14:28:53.163, 1596054533163
65, 4400.14, 0.00, 214.22, 0.00, 0.00, 0.00, 0.00, 0.00, 0.000, 0.000, 0.000, 14:28:53.163, 1596054533163
66, 4580.79, 0.00, 338.58, 0.00, 0.00, 0.00, 0.00, 0.00, 0.000, 0.000, 0.000, 14:28:53.163, 1596054533163
67, 4677.50, 0.00, 405.77, 0.00, 0.00, 0.00, 0.00, 0.00, 0.030, -0.046, 0.976, 14:28:53.178, 1596054533178
68, 4584.01, 0.00, 366.59, 0.00, 0.00, 0.00, 0.00, 0.00, 0.000, 0.000, 0.000, 14:28:53.178, 1596054533178
69, 4550.10, 0.00, 368.31, 0.00, 0.00, 0.00, 0.00, 0.00, 0.000, 0.000, 0.000, 14:28:53.178, 1596054533178
70, 4694.07, 0.00, 462.97, 0.00, 0.00, 0.00, 0.00, 0.00, 0.000, 0.000, 0.000, 14:28:53.178, 1596054533178
71, 4788.70, 0.00, 514.36, 0.00, 0.00, 0.00, 0.00, 0.00, 0.000, 0.000, 0.000, 14:28:53.193, 1596054533193
72, 4722.79, 0.00, 492.74, 0.00, 0.00, 0.00, 0.00, 0.00, 0.000, 0.000, 0.000, 14:28:53.193, 1596054533193
73, 4677.77, 0.00, 496.34, 0.00, 0.00, 0.00, 0.00, 0.00, 0.000, 0.000, 0.000, 14:28:53.194, 1596054533194
74, 4808.62, 0.00, 587.90, 0.00, 0.00, 0.00, 0.00, 0.00, 0.000, 0.000, 0.000, 14:28:53.194, 1596054533194
75, 4968.52, 0.00, 694.60, 0.00, 0.00, 0.00, 0.00, 0.00, 0.000, 0.000, 0.000, 14:28:53.207, 1596054533207
76, 4912.96, 0.00, 670.75, 0.00, 0.00, 0.00, 0.00, 0.00, 0.000, 0.000, 0.000, 14:28:53.207, 1596054533207
77, 4839.69, 0.00, 655.64, 0.00, 0.00, 0.00, 0.00, 0.00, 0.030, -0.042, 0.974, 14:28:53.208, 1596054533208
78, 4969.87, 0.00, 759.62, 0.00, 0.00, 0.00, 0.00, 0.00, 0.000, 0.000, 0.000, 14:28:53.223, 1596054533223
79, 5096.67, 0.00, 827.04, 0.00, 0.00, 0.00, 0.00, 0.00, 0.000, 0.000, 0.000, 14:28:53.223, 1596054533223
80, 5091.12, 0.00, 837.72, 0.00, 0.00, 0.00, 0.00, 0.00, 0.000, 0.000, 0.000, 14:28:53.224, 1596054533224
81, 5023.22, 0.00, 832.31, 0.00, 0.00, 0.00, 0.00, 0.00, 0.000, 0.000, 0.000, 14:28:53.224, 1596054533224
82, 5104.11, 0.00, 902.88, 0.00, 0.00, 0.00, 0.00, 0.00, 0.000, 0.000, 0.000, 14:28:53.238, 1596054533238
83, 5273.80, 0.00, 1011.15, 0.00, 0.00, 0.00, 0.00, 0.00, 0.000, 0.000, 0.000, 14:28:53.239, 1596054533239
84, 5256.79, 0.00, 993.71, 0.00, 0.00, 0.00, 0.00, 0.00, 0.000, 0.000, 0.000, 14:28:53.240, 1596054533240
85, 5181.34, 0.00, 981.82, 0.00, 0.00, 0.00, 0.00, 0.00, 0.000, 0.000, 0.000, 14:28:53.240, 1596054533240
86, 5219.31, 0.00, 1026.08, 0.00, 0.00, 0.00, 0.00, 0.00, 0.000, 0.000, 0.000, 14:28:53.253, 1596054533253
87, 5395.46, 0.00, 1142.06, 0.00, 0.00, 0.00, 0.00, 0.00, 0.032, -0.046, 0.970, 14:28:53.253, 1596054533253
88, 5442.96, 0.00, 1172.19, 0.00, 0.00, 0.00, 0.00, 0.00, 0.000, 0.000, 0.000, 14:28:53.253, 1596054533253
89, 5355.79, 0.00, 1144.50, 0.00, 0.00, 0.00, 0.00, 0.00, 0.000, 0.000, 0.000, 14:28:53.253, 1596054533253
90, 5373.58, 0.00, 1185.92, 0.00, 0.00, 0.00, 0.00, 0.00, 0.000, 0.000, 0.000, 14:28:53.267, 1596054533267
91, 5527.68, 0.00, 1284.53, 0.00, 0.00, 0.00, 0.00, 0.00, 0.000, 0.000, 0.000, 14:28:53.268, 1596054533268
92, 5634.32, 0.00, 1358.70, 0.00, 0.00, 0.00, 0.00, 0.00, 0.000, 0.000, 0.000, 14:28:53.268, 1596054533268
93, 5557.60, 0.00, 1334.20, 0.00, 0.00, 0.00, 0.00, 0.00, 0.000, 0.000, 0.000, 14:28:53.283, 1596054533283
94, 5512.48, 0.00, 1327.83, 0.00, 0.00, 0.00, 0.00, 0.00, 0.000, 0.000, 0.000, 14:28:53.283, 1596054533283
95, 5644.22, 0.00, 1412.21, 0.00, 0.00, 0.00, 0.00, 0.00, 0.000, 0.000, 0.000, 14:28:53.283, 1596054533283
96, 5757.90, 0.00, 1479.95, 0.00, 0.00, 0.00, 0.00, 0.00, 0.000, 0.000, 0.000, 14:28:53.283, 1596054533283
97, 5709.22, 0.00, 1473.07, 0.00, 0.00, 0.00, 0.00, 0.00, 0.030, -0.052, 0.970, 14:28:53.298, 1596054533298
98, 5662.55, 0.00, 1477.87, 0.00, 0.00, 0.00, 0.00, 0.00, 0.000, 0.000, 0.000, 14:28:53.298, 1596054533298
99, 5773.37, 0.00, 1552.19, 0.00, 0.00, 0.00, 0.00, 0.00, 0.000, 0.000, 0.000, 14:28:53.298, 1596054533298
100, 5912.17, 0.00, 1635.90, 0.00, 0.00, 0.00, 0.00, 0.00, 0.000, 0.000, 0.000, 14:28:53.298, 1596054533298
101, 5885.84, 0.00, 1637.78, 0.00, 0.00, 0.00, 0.00, 0.00, 0.000, 0.000, 0.000, 14:28:53.314, 1596054533314
102, 5830.79, 0.00, 1642.27, 0.00, 0.00, 0.00, 0.00, 0.00, 0.000, 0.000, 0.000, 14:28:53.315, 1596054533315
103, 5932.56, 0.00, 1721.26, 0.00, 0.00, 0.00, 0.00, 0.00, 0.000, 0.000, 0.000, 14:28:53.315, 1596054533315
104, 6051.87, 0.00, 1780.07, 0.00, 0.00, 0.00, 0.00, 0.00, 0.000, 0.000, 0.000, 14:28:53.316, 1596054533316
105, 6043.08, 0.00, 1783.98, 0.00, 0.00, 0.00, 0.00, 0.00, 0.000, 0.000, 0.000, 14:28:53.328, 1596054533328
106, 5959.02, 0.00, 1763.46, 0.00, 0.00, 0.00, 0.00, 0.00, 0.000, 0.000, 0.000, 14:28:53.328, 1596054533328
107, 6020.62, 0.00, 1818.27, 0.00, 0.00, 0.00, 0.00, 0.00, 0.034, -0.048, 0.974, 14:28:53.328, 1596054533328
108, 6202.68, 0.00, 1938.45, 0.00, 0.00, 0.00, 0.00, 0.00, 0.000, 0.000, 0.000, 14:28:53.342, 1596054533342
109, 6208.67, 0.00, 1940.56, 0.00, 0.00, 0.00, 0.00, 0.00, 0.000, 0.000, 0.000, 14:28:53.343, 1596054533343
110, 6115.46, 0.00, 1909.98, 0.00, 0.00, 0.00, 0.00, 0.00, 0.000, 0.000, 0.000, 14:28:53.343, 1596054533343
111, 6173.26, 0.00, 1977.93, 0.00, 0.00, 0.00, 0.00, 0.00, 0.000, 0.000, 0.000, 14:28:53.343, 1596054533343
112, 6354.96, 0.00, 2100.57, 0.00, 0.00, 0.00, 0.00, 0.00, 0.000, 0.000, 0.000, 14:28:53.358, 1596054533358
113, 6404.96, 0.00, 2129.43, 0.00, 0.00, 0.00, 0.00, 0.00, 0.000, 0.000, 0.000, 14:28:53.359, 1596054533359
114, 6272.95, 0.00, 2055.65, 0.00, 0.00, 0.00, 0.00, 0.00, 0.000, 0.000, 0.000, 14:28:53.359, 1596054533359
115, 6264.61, 0.00, 2074.67, 0.00, 0.00, 0.00, 0.00, 0.00, 0.000, 0.000, 0.000, 14:28:53.360, 1596054533360
116, 6421.39, 0.00, 2177.64, 0.00, 0.00, 0.00, 0.00, 0.00, 0.030, -0.044, 0.972, 14:28:53.373, 1596054533373
117, 6528.01, 0.00, 2247.98, 0.00, 0.00, 0.00, 0.00, 0.00, 0.000, 0.000, 0.000, 14:28:53.373, 1596054533373
118, 6476.89, 0.00, 2247.07, 0.00, 0.00, 0.00, 0.00, 0.00, 0.000, 0.000, 0.000, 14:28:53.373, 1596054533373
119, 6445.97, 0.00, 2258.22, 0.00, 0.00, 0.00, 0.00, 0.00, 0.000, 0.000, 0.000, 14:28:53.373, 1596054533373
120, 6595.31, 0.00, 2362.36, 0.00, 0.00, 0.00, 0.00, 0.00, 0.000, 0.000, 0.000, 14:28:53.388, 1596054533388
121, 6710.19, 0.00, 2429.10, 0.00, 0.00, 0.00, 0.00, 0.00, 0.000, 0.000, 0.000, 14:28:53.388, 1596054533388
122, 6626.49, 0.00, 2384.42, 0.00, 0.00, 0.00, 0.00, 0.00, 0.000, 0.000, 0.000, 14:28:53.389, 1596054533389
123, 6573.00, 0.00, 2384.31, 0.00, 0.00, 0.00, 0.00, 0.00, 0.000, 0.000, 0.000, 14:28:53.389, 1596054533389
124, 6684.85, 0.00, 2462.78, 0.00, 0.00, 0.00, 0.00, 0.00, 0.000, 0.000, 0.000, 14:28:53.403, 1596054533403
125, 6781.81, 0.00, 2503.04, 0.00, 0.00, 0.00, 0.00, 0.00, 0.000, 0.000, 0.000, 14:28:53.403, 1596054533403
126, 6754.85, 0.00, 2501.20, 0.00, 0.00, 0.00, 0.00, 0.00, 0.028, -0.050, 0.970, 14:28:53.403, 1596054533403
127, 6662.70, 0.00, 2469.44, 0.00, 0.00, 0.00, 0.00, 0.00, 0.000, 0.000, 0.000, 14:28:53.419, 1596054533419
128, 6768.56, 0.00, 2556.10, 0.00, 0.00, 0.00, 0.00, 0.00, 0.000, 0.000, 0.000, 14:28:53.419, 1596054533419
129, 6924.08, 0.00, 2650.56, 0.00, 0.00, 0.00, 0.00, 0.00, 0.000, 0.000, 0.000, 14:28:53.419, 1596054533419
130, 6907.99, 0.00, 2643.59, 0.00, 0.00, 0.00, 0.00, 0.00, 0.000, 0.000, 0.000, 14:28:53.420, 1596054533420
131, 6820.19, 0.00, 2619.13, 0.00, 0.00, 0.00, 0.00, 0.00, 0.000, 0.000, 0.000, 14:28:53.433, 1596054533433
132, 6881.54, 0.00, 2677.58, 0.00, 0.00, 0.00, 0.00, 0.00, 0.000, 0.000, 0.000, 14:28:53.433, 1596054533433
133, 7034.83, 0.00, 2769.63, 0.00, 0.00, 0.00, 0.00, 0.00, 0.000, 0.000, 0.000, 14:28:53.433, 1596054533433
134, 7071.04, 0.00, 2797.61, 0.00, 0.00, 0.00, 0.00, 0.00, 0.000, 0.000, 0.000, 14:28:53.434, 1596054533434
135, 6962.79, 0.00, 2751.39, 0.00, 0.00, 0.00, 0.00, 0.00, 0.000, 0.000, 0.000, 14:28:53.449, 1596054533449
136, 6963.89, 0.00, 2766.79, 0.00, 0.00, 0.00, 0.00, 0.00, 0.024, -0.048, 0.964, 14:28:53.449, 1596054533449
137, 7109.58, 0.00, 2854.38, 0.00, 0.00, 0.00, 0.00, 0.00, 0.000, 0.000, 0.000, 14:28:53.449, 1596054533449
138, 7169.90, 0.00, 2889.81, 0.00, 0.00, 0.00, 0.00, 0.00, 0.000, 0.000, 0.000, 14:28:53.449, 1596054533449
139, 7090.04, 0.00, 2866.57, 0.00, 0.00, 0.00, 0.00, 0.00, 0.000, 0.000, 0.000, 14:28:53.463, 1596054533463
140, 7084.32, 0.00, 2891.82, 0.00, 0.00, 0.00, 0.00, 0.00, 0.000, 0.000, 0.000, 14:28:53.463, 1596054533463
141, 7206.94, 0.00, 2962.63, 0.00, 0.00, 0.00, 0.00, 0.00, 0.000, 0.000, 0.000, 14:28:53.464, 1596054533464
142, 7285.48, 0.00, 3001.41, 0.00, 0.00, 0.00, 0.00, 0.00, 0.000, 0.000, 0.000, 14:28:53.477, 1596054533477
143, 7223.52, 0.00, 2987.22, 0.00, 0.00, 0.00, 0.00, 0.00, 0.000, 0.000, 0.000, 14:28:53.478, 1596054533478
144, 7176.85, 0.00, 2985.88, 0.00, 0.00, 0.00, 0.00, 0.00, 0.000, 0.000, 0.000, 14:28:53.478, 1596054533478
145, 7300.10, 0.00, 3067.13, 0.00, 0.00, 0.00, 0.00, 0.00, 0.000, 0.000, 0.000, 14:28:53.478, 1596054533478
146, 7427.46, 0.00, 3143.66, 0.00, 0.00, 0.00, 0.00, 0.00, 0.030, -0.046, 0.966, 14:28:53.493, 1596054533493
147, 7354.86, 0.00, 3106.45, 0.00, 0.00, 0.00, 0.00, 0.00, 0.000, 0.000, 0.000, 14:28:53.494, 1596054533494
148, 7261.88, 0.00, 3069.59, 0.00, 0.00, 0.00, 0.00, 0.00, 0.000, 0.000, 0.000, 14:28:53.494, 1596054533494
149, 7359.60, 0.00, 3136.71, 0.00, 0.00, 0.00, 0.00, 0.00, 0.000, 0.000, 0.000, 14:28:53.494, 1596054533494
150, 7481.73, 0.00, 3200.46, 0.00, 0.00, 0.00, 0.00, 0.00, 0.000, 0.000, 0.000, 14:28:53.508, 1596054533508
151, 7447.15, 0.00, 3187.36, 0.00, 0.00, 0.00, 0.00, 0.00, 0.000, 0.000, 0.000, 14:28:53.508, 1596054533508
152, 7359.94, 0.00, 3161.88, 0.00, 0.00, 0.00, 0.00, 0.00, 0.000, 0.000, 0.000, 14:28:53.508, 1596054533508
153, 7450.95, 0.00, 3237.07, 0.00, 0.00, 0.00, 0.00, 0.00, 0.000, 0.000, 0.000, 14:28:53.509, 1596054533509
154, 7569.33, 0.00, 3294.07, 0.00, 0.00, 0.00, 0.00, 0.00, 0.000, 0.000, 0.000, 14:28:53.523, 1596054533523
155, 7564.88, 0.00, 3294.71, 0.00, 0.00, 0.00, 0.00, 0.00, 0.000, 0.000, 0.000, 14:28:53.523, 1596054533523
156, 7465.53, 0.00, 3258.73, 0.00, 0.00, 0.00, 0.00, 0.00, 0.036, -0.046, 0.970, 14:28:53.524, 1596054533524
157, 7509.72, 0.00, 3304.26, 0.00, 0.00, 0.00, 0.00, 0.00, 0.000, 0.000, 0.000, 14:28:53.538, 1596054533538
158, 7657.33, 0.00, 3391.14, 0.00, 0.00, 0.00, 0.00, 0.00, 0.000, 0.000, 0.000, 14:28:53.538, 1596054533538
159, 7683.14, 0.00, 3404.37, 0.00, 0.00, 0.00, 0.00, 0.00, 0.000, 0.000, 0.000, 14:28:53.538, 1596054533538
160, 7600.71, 0.00, 3383.12, 0.00, 0.00, 0.00, 0.00, 0.00, 0.000, 0.000, 0.000, 14:28:53.538, 1596054533538
161, 7574.25, 0.00, 3375.18, 0.00, 0.00, 0.00, 0.00, 0.00, 0.000, 0.000, 0.000, 14:28:53.553, 1596054533553
162, 7692.11, 0.00, 3436.09, 0.00, 0.00, 0.00, 0.00, 0.00, 0.000, 0.000, 0.000, 14:28:53.553, 1596054533553
163, 7749.62, 0.00, 3465.17, 0.00, 0.00, 0.00, 0.00, 0.00, 0.000, 0.000, 0.000, 14:28:53.553, 1596054533553
164, 7674.58, 0.00, 3444.92, 0.00, 0.00, 0.00, 0.00, 0.00, 0.000, 0.000, 0.000, 14:28:53.554, 1596054533554
165, 7647.47, 0.00, 3452.41, 0.00, 0.00, 0.00, 0.00, 0.00, 0.000, 0.000, 0.000, 14:28:53.568, 1596054533568
166, 7781.83, 0.00, 3536.90, 0.00, 0.00, 0.00, 0.00, 0.00, 0.030, -0.044, 0.976, 14:28:53.569, 1596054533569
167, 7868.17, 0.00, 3580.86, 0.00, 0.00, 0.00, 0.00, 0.00, 0.000, 0.000, 0.000, 14:28:53.569, 1596054533569
168, 7818.15, 0.00, 3575.74, 0.00, 0.00, 0.00, 0.00, 0.00, 0.000, 0.000, 0.000, 14:28:53.569, 1596054533569
169, 7720.11, 0.00, 3525.72, 0.00, 0.00, 0.00, 0.00, 0.00, 0.000, 0.000, 0.000, 14:28:53.583, 1596054533583
170, 7819.27, 0.00, 3585.18, 0.00, 0.00, 0.00, 0.00, 0.00, 0.000, 0.000, 0.000, 14:28:53.583, 1596054533583
171, 7924.99, 0.00, 3638.37, 0.00, 0.00, 0.00, 0.00, 0.00, 0.000, 0.000, 0.000, 14:28:53.584, 1596054533584
172, 7874.27, 0.00, 3619.62, 0.00, 0.00, 0.00, 0.00, 0.00, 0.000, 0.000, 0.000, 14:28:53.600, 1596054533600
173, 7791.24, 0.00, 3594.63, 0.00, 0.00, 0.00, 0.00, 0.00, 0.000, 0.000, 0.000, 14:28:53.600, 1596054533600
174, 7859.77, 0.00, 3635.76, 0.00, 0.00, 0.00, 0.00, 0.00, 0.000, 0.000, 0.000, 14:28:53.600, 1596054533600
175, 7982.37, 0.00, 3698.83, 0.00, 0.00, 0.00, 0.00, 0.00, 0.000, 0.000, 0.000, 14:28:53.600, 1596054533600
176, 7950.83, 0.00, 3685.38, 0.00, 0.00, 0.00, 0.00, 0.00, 0.032, -0.044, 0.976, 14:28:53.613, 1596054533613
177, 7865.87, 0.00, 3662.96, 0.00, 0.00, 0.00, 0.00, 0.00, 0.000, 0.000, 0.000, 14:28:53.614, 1596054533614
178, 7911.13, 0.00, 3695.93, 0.00, 0.00, 0.00, 0.00, 0.00, 0.000, 0.000, 0.000, 14:28:53.614, 1596054533614
179, 8007.83, 0.00, 3731.58, 0.00, 0.00, 0.00, 0.00, 0.00, 0.000, 0.000, 0.000, 14:28:53.614, 1596054533614
180, 7993.10, 0.00, 3717.85, 0.00, 0.00, 0.00, 0.00, 0.00, 0.000, 0.000, 0.000, 14:28:53.629, 1596054533629
181, 7875.37, 0.00, 3662.98, 0.00, 0.00, 0.00, 0.00, 0.00, 0.000, 0.000, 0.000, 14:28:53.629, 1596054533629
182, 7894.93, 0.00, 3687.46, 0.00, 0.00, 0.00, 0.00, 0.00, 0.000, 0.000, 0.000, 14:28:53.629, 1596054533629
183, 8044.35, 0.00, 3777.11, 0.00, 0.00, 0.00, 0.00, 0.00, 0.000, 0.000, 0.000, 14:28:53.629, 1596054533629
184, 8066.74, 0.00, 3784.04, 0.00, 0.00, 0.00, 0.00, 0.00, 0.000, 0.000, 0.000, 14:28:53.642, 1596054533642
185, 7963.10, 0.00, 3740.59, 0.00, 0.00, 0.00, 0.00, 0.00, 0.000, 0.000, 0.000, 14:28:53.642, 1596054533642
186, 7956.35, 0.00, 3755.67, 0.00, 0.00, 0.00, 0.00, 0.00, 0.034, -0.048, 0.974, 14:28:53.643, 1596054533643
187, 8080.09, 0.00, 3823.60, 0.00, 0.00, 0.00, 0.00, 0.00, 0.000, 0.000, 0.000, 14:28:53.659, 1596054533659
188, 8144.37, 0.00, 3855.77, 0.00, 0.00, 0.00, 0.00, 0.00, 0.000, 0.000, 0.000, 14:28:53.660, 1596054533660
189, 8056.22, 0.00, 3820.27, 0.00, 0.00, 0.00, 0.00, 0.00, 0.000, 0.000, 0.000, 14:28:53.660, 1596054533660
190, 8014.96, 0.00, 3816.98, 0.00, 0.00, 0.00, 0.00, 0.00, 0.000, 0.000, 0.000, 14:28:53.661, 1596054533661
191, 8080.13, 0.00, 3834.31, 0.00, 0.00, 0.00, 0.00, 0.00, 0.000, 0.000, 0.000, 14:28:53.673, 1596054533673
192, 8144.82, 0.00, 3853.87, 0.00, 0.00, 0.00, 0.00, 0.00, 0.000, 0.000, 0.000, 14:28:53.673, 1596054533673
193, 8088.07, 0.00, 3839.78, 0.00, 0.00, 0.00, 0.00, 0.00, 0.000, 0.000, 0.000, 14:28:53.673, 1596054533673
194, 8020.23, 0.00, 3822.64, 0.00, 0.00, 0.00, 0.00, 0.00, 0.000, 0.000, 0.000, 14:28:53.673, 1596054533673
195, 8091.53, 0.00, 3856.77, 0.00, 0.00, 0.00, 0.00, 0.00, 0.000, 0.000, 0.000, 14:28:53.688, 1596054533688
196, 8207.31, 0.00, 3917.84, 0.00, 0.00, 0.00, 0.00, 0.00, 0.030, -0.042, 0.970, 14:28:53.688, 1596054533688
197, 8157.43, 0.00, 3896.96, 0.00, 0.00, 0.00, 0.00, 0.00, 0.000, 0.000, 0.000, 14:28:53.689, 1596054533689
198, 8076.31, 0.00, 3874.97, 0.00, 0.00, 0.00, 0.00, 0.00, 0.000, 0.000, 0.000, 14:28:53.689, 1596054533689
199, 8110.69, 0.00, 3885.63, 0.00, 0.00, 0.00, 0.00, 0.00, 0.000, 0.000, 0.000, 14:28:53.703, 1596054533703
200, 8220.75, 0.00, 3935.27, 0.00, 0.00, 0.00, 0.00, 0.00, 0.000, 0.000, 0.000, 14:28:53.703, 1596054533703
201, 8190.33, 0.00, 3918.66, 0.00, 0.00, 0.00, 0.00, 0.00, 0.000, 0.000, 0.000, 14:28:53.703, 1596054533703
202, 8068.15, 0.00, 3860.03, 0.00, 0.00, 0.00, 0.00, 0.00, 0.000, 0.000, 0.000, 14:28:53.718, 1596054533718
203, 8127.43, 0.00, 3911.51, 0.00, 0.00, 0.00, 0.00, 0.00, 0.000, 0.000, 0.000, 14:28:53.718, 1596054533718
204, 8261.09, 0.00, 3983.75, 0.00, 0.00, 0.00, 0.00, 0.00, 0.000, 0.000, 0.000, 14:28:53.718, 1596054533718
205, 8232.28, 0.00, 3951.54, 0.00, 0.00, 0.00, 0.00, 0.00, 0.000, 0.000, 0.000, 14:28:53.718, 1596054533718
206, 8109.50, 0.00, 3891.17, 0.00, 0.00, 0.00, 0.00, 0.00, 0.030, -0.044, 0.974, 14:28:53.734, 1596054533734
207, 8118.20, 0.00, 3909.32, 0.00, 0.00, 0.00, 0.00, 0.00, 0.000, 0.000, 0.000, 14:28:53.735, 1596054533735
208, 8255.28, 0.00, 3986.95, 0.00, 0.00, 0.00, 0.00, 0.00, 0.000, 0.000, 0.000, 14:28:53.735, 1596054533735
209, 8270.70, 0.00, 3982.79, 0.00, 0.00, 0.00, 0.00, 0.00, 0.000, 0.000, 0.000, 14:28:53.735, 1596054533735
210, 8150.29, 0.00, 3920.88, 0.00, 0.00, 0.00, 0.00, 0.00, 0.000, 0.000, 0.000, 14:28:53.749, 1596054533749
211, 8128.44, 0.00, 3924.94, 0.00, 0.00, 0.00, 0.00, 0.00, 0.000, 0.000, 0.000, 14:28:53.749, 1596054533749
212, 8228.75, 0.00, 3971.41, 0.00, 0.00, 0.00, 0.00, 0.00, 0.000, 0.000, 0.000, 14:28:53.750, 1596054533750
213, 8284.99, 0.00, 3992.63, 0.00, 0.00, 0.00, 0.00, 0.00, 0.000, 0.000, 0.000, 14:28:53.750, 1596054533750
214, 8181.39, 0.00, 3939.56, 0.00, 0.00, 0.00, 0.00, 0.00, 0.000, 0.000, 0.000, 14:28:53.763, 1596054533763
215, 8116.81, 0.00, 3916.18, 0.00, 0.00, 0.00, 0.00, 0.00, 0.034, -0.044, 0.978, 14:28:53.764, 1596054533764
216, 8221.93, 0.00, 3975.88, 0.00, 0.00, 0.00, 0.00, 0.00, 0.000, 0.000, 0.000, 14:28:53.765, 1596054533765
217, 8303.02, 0.00, 4009.10, 0.00, 0.00, 0.00, 0.00, 0.00, 0.000, 0.000, 0.000, 14:28:53.778, 1596054533778
218, 8172.60, 0.00, 3918.31, 0.00, 0.00, 0.00, 0.00, 0.00, 0.000, 0.000, 0.000, 14:28:53.778, 1596054533778
219, 8035.25, 0.00, 3834.13, 0.00, 0.00, 0.00, 0.00, 0.00, 0.000, 0.000, 0.000, 14:28:53.778, 1596054533778
220, 8050.41, 0.00, 3815.24, 0.00, 0.00, 0.00, 0.00, 0.00, 0.000, 0.000, 0.000, 14:28:53.778, 1596054533778
221, 8130.89, 0.00, 3838.93, 0.00, 0.00, 0.00, 0.00, 0.00, 0.000, 0.000, 0.000, 14:28:53.793, 1596054533793
222, 8063.03, 0.00, 3796.80, 0.00, 0.00, 0.00, 0.00, 0.00, 0.000, 0.000, 0.000, 14:28:53.794, 1596054533794
223, 7961.67, 0.00, 3756.23, 0.00, 0.00, 0.00, 0.00, 0.00, 0.000, 0.000, 0.000, 14:28:53.794, 1596054533794
224, 8028.17, 0.00, 3802.26, 0.00, 0.00, 0.00, 0.00, 0.00, 0.000, 0.000, 0.000, 14:28:53.794, 1596054533794
225, 8160.26, 0.00, 3873.78, 0.00, 0.00, 0.00, 0.00, 0.00, 0.030, -0.042, 0.974, 14:28:53.808, 1596054533808
226, 8124.77, 0.00, 3848.17, 0.00, 0.00, 0.00, 0.00, 0.00, 0.000, 0.000, 0.000, 14:28:53.808, 1596054533808
227, 8018.22, 0.00, 3805.18, 0.00, 0.00, 0.00, 0.00, 0.00, 0.000, 0.000, 0.000, 14:28:53.809, 1596054533809
228, 8052.17, 0.00, 3835.20, 0.00, 0.00, 0.00, 0.00, 0.00, 0.000, 0.000, 0.000, 14:28:53.809, 1596054533809
229, 8161.76, 0.00, 3883.30, 0.00, 0.00, 0.00, 0.00, 0.00, 0.000, 0.000, 0.000, 14:28:53.823, 1596054533823
230, 8170.26, 0.00, 3884.53, 0.00, 0.00, 0.00, 0.00, 0.00, 0.000, 0.000, 0.000, 14:28:53.823, 1596054533823
231, 8057.83, 0.00, 3833.95, 0.00, 0.00, 0.00, 0.00, 0.00, 0.000, 0.000, 0.000, 14:28:53.823, 1596054533823
232, 8062.81, 0.00, 3852.64, 0.00, 0.00, 0.00, 0.00, 0.00, 0.000, 0.000, 0.000, 14:28:53.839, 1596054533839
233, 8156.96, 0.00, 3888.35, 0.00, 0.00, 0.00, 0.00, 0.00, 0.000, 0.000, 0.000, 14:28:53.839, 1596054533839
234, 8175.17, 0.00, 3882.79, 0.00, 0.00, 0.00, 0.00, 0.00, 0.000, 0.000, 0.000, 14:28:53.840, 1596054533840
235, 8075.51, 0.00, 3840.10, 0.00, 0.00, 0.00, 0.00, 0.00, 0.026, -0.048, 0.974, 14:28:53.840, 1596054533840
236, 8020.72, 0.00, 3815.53, 0.00, 0.00, 0.00, 0.00, 0.00, 0.000, 0.000, 0.000, 14:28:53.853, 1596054533853
237, 8140.82, 0.00, 3883.46, 0.00, 0.00, 0.00, 0.00, 0.00, 0.000, 0.000, 0.000, 14:28:53.853, 1596054533853
238, 8208.10, 0.00, 3911.22, 0.00, 0.00, 0.00, 0.00, 0.00, 0.000, 0.000, 0.000, 14:28:53.854, 1596054533854
239, 8063.48, 0.00, 3815.08, 0.00, 0.00, 0.00, 0.00, 0.00, 0.000, 0.000, 0.000, 14:28:53.854, 1596054533854
240, 7977.18, 0.00, 3773.31, 0.00, 0.00, 0.00, 0.00, 0.00, 0.000, 0.000, 0.000, 14:28:53.868, 1596054533868
241, 8068.85, 0.00, 3821.99, 0.00, 0.00, 0.00, 0.00, 0.00, 0.000, 0.000, 0.000, 14:28:53.869, 1596054533869
242, 8171.42, 0.00, 3874.45, 0.00, 0.00, 0.00, 0.00, 0.00, 0.000, 0.000, 0.000, 14:28:53.869, 1596054533869
243, 8053.65, 0.00, 3793.47, 0.00, 0.00, 0.00, 0.00, 0.00, 0.000, 0.000, 0.000, 14:28:53.869, 1596054533869
244, 7944.82, 0.00, 3740.05, 0.00, 0.00, 0.00, 0.00, 0.00, 0.000, 0.000, 0.000, 14:28:53.882, 1596054533882
245, 8046.94, 0.00, 3810.86, 0.00, 0.00, 0.00, 0.00, 0.00, 0.024, -0.048, 0.974, 14:28:53.883, 1596054533883
246, 8166.08, 0.00, 3871.79, 0.00, 0.00, 0.00, 0.00, 0.00, 0.000, 0.000, 0.000, 14:28:53.883, 1596054533883
247, 8053.11, 0.00, 3781.09, 0.00, 0.00, 0.00, 0.00, 0.00, 0.000, 0.000, 0.000, 14:28:53.883, 1596054533883
248, 7911.33, 0.00, 3701.20, 0.00, 0.00, 0.00, 0.00, 0.00, 0.000, 0.000, 0.000, 14:28:53.898, 1596054533898
249, 7943.27, 0.00, 3716.45, 0.00, 0.00, 0.00, 0.00, 0.00, 0.000, 0.000, 0.000, 14:28:53.898, 1596054533898
250, 8050.16, 0.00, 3762.33, 0.00, 0.00, 0.00, 0.00, 0.00, 0.000, 0.000, 0.000, 14:28:53.898, 1596054533898
251, 8008.14, 0.00, 3726.33, 0.00, 0.00, 0.00, 0.00, 0.00, 0.000, 0.000, 0.000, 14:28:53.914, 1596054533914
252, 7879.95, 0.00, 3661.75, 0.00, 0.00, 0.00, 0.00, 0.00, 0.000, 0.000, 0.000, 14:28:53.915, 1596054533915
253, 7892.69, 0.00, 3674.43, 0.00, 0.00, 0.00, 0.00, 0.00, 0.000, 0.000, 0.000, 14:28:53.915, 1596054533915
254, 7991.28, 0.00, 3712.11, 0.00, 0.00, 0.00, 0.00, 0.00, 0.000, 0.000, 0.000, 14:28:53.915, 1596054533915
255, 7995.51, 0.00, 3704.89, 0.00, 0.00, 0.00, 0.00, 0.00, 0.024, -0.050, 0.972, 14:28:53.929, 1596054533929
0, 7865.60, 0.00, 3635.62, 0.00, 0.00, 0.00, 0.00, 0.00, 0.000, 0.000, 0.000, 14:28:53.929, 1596054533929
1, 7838.69, 0.00, 3626.97, 0.00, 0.00, 0.00, 0.00, 0.00, 0.000, 0.000, 0.000, 14:28:53.929, 1596054533929
2, 7955.05, 0.00, 3686.00, 0.00, 0.00, 0.00, 0.00, 0.00, 0.000, 0.000, 0.000, 14:28:53.929, 1596054533929
3, 7955.19, 0.00, 3658.51, 0.00, 0.00, 0.00, 0.00, 0.00, 0.000, 0.000, 0.000, 14:28:53.943, 1596054533943
4, 7804.31, 0.00, 3562.49, 0.00, 0.00, 0.00, 0.00, 0.00, 0.000, 0.000, 0.000, 14:28:53.943, 1596054533943
5, 7737.03, 0.00, 3529.43, 0.00, 0.00, 0.00, 0.00, 0.00, 0.000, 0.000, 0.000, 14:28:53.944, 1596054533944
6, 7833.59, 0.00, 3575.88, 0.00, 0.00, 0.00, 0.00, 0.00, 0.000, 0.000, 0.000, 14:28:53.944, 1596054533944
7, 7892.15, 0.00, 3592.53, 0.00, 0.00, 0.00, 0.00, 0.00, 0.000, 0.000, 0.000, 14:28:53.958, 1596054533958
8, 7753.89, 0.00, 3499.81, 0.00, 0.00, 0.00, 0.00, 0.00, 0.000, 0.000, 0.000, 14:28:53.959, 1596054533959
9, 7661.73, 0.00, 3455.09, 0.00, 0.00, 0.00, 0.00, 0.00, 0.024, -0.048, 0.976, 14:28:53.959, 1596054533959
10, 7740.50, 0.00, 3493.42, 0.00, 0.00, 0.00, 0.00, 0.00, 0.000, 0.000, 0.000, 14:28:53.973, 1596054533973
11, 7835.98, 0.00, 3536.67, 0.00, 0.00, 0.00, 0.00, 0.00, 0.000, 0.000, 0.000, 14:28:53.973, 1596054533973
12, 7745.26, 0.00, 3479.14, 0.00, 0.00, 0.00, 0.00, 0.00, 0.000, 0.000, 0.000, 14:28:53.973, 1596054533973
13, 7592.35, 0.00, 3383.47, 0.00, 0.00, 0.00, 0.00, 0.00, 0.000, 0.000, 0.000, 14:28:53.973, 1596054533973
14, 7648.21, 0.00, 3411.50, 0.00, 0.00, 0.00, 0.00, 0.00, 0.000, 0.000, 0.000, 14:28:53.989, 1596054533989
15, 7734.82, 0.00, 3438.97, 0.00, 0.00, 0.00, 0.00, 0.00, 0.000, 0.000, 0.000, 14:28:53.989, 1596054533989
16, 7672.53, 0.00, 3394.76, 0.00, 0.00, 0.00, 0.00, 0.00, 0.000, 0.000, 0.000, 14:28:53.989, 1596054533989
17, 7538.68, 0.00, 3324.02, 0.00, 0.00, 0.00, 0.00, 0.00, 0.000, 0.000, 0.000, 14:28:53.989, 1596054533989
18, 7575.99, 0.00, 3348.72, 0.00, 0.00, 0.00, 0.00, 0.00, 0.000, 0.000, 0.000, 14:28:54.005, 1596054534005
19, 7698.30, 0.00, 3409.27, 0.00, 0.00, 0.00, 0.00, 0.00, 0.032, -0.046, 0.978, 14:28:54.005, 1596054534005
20, 7668.37, 0.00, 3381.35, 0.00, 0.00, 0.00, 0.00, 0.00, 0.000, 0.000, 0.000, 14:28:54.005, 1596054534005
21, 7498.12, 0.00, 3274.11, 0.00, 0.00, 0.00, 0.00, 0.00, 0.000, 0.000, 0.000, 14:28:54.005, 1596054534005
22, 7491.48, 0.00, 3271.69, 0.00, 0.00, 0.00, 0.00, 0.00, 0.000, 0.000, 0.000, 14:28:54.018, 1596054534018
23, 7575.25, 0.00, 3295.14, 0.00, 0.00, 0.00, 0.00, 0.00, 0.000, 0.000, 0.000, 14:28:54.018, 1596054534018
24, 7555.81, 0.00, 3260.58, 0.00, 0.00, 0.00, 0.00, 0.00, 0.000, 0.000, 0.000, 14:28:54.018, 1596054534018
25, 7414.48, 0.00, 3179.27, 0.00, 0.00, 0.00, 0.00, 0.00, 0.000, 0.000, 0.000, 14:28:54.035, 1596054534035
26, 7379.16, 0.00, 3165.97, 0.00, 0.00, 0.00, 0.00, 0.00, 0.000, 0.000, 0.000, 14:28:54.035, 1596054534035
27, 7479.81, 0.00, 3210.47, 0.00, 0.00, 0.00, 0.00, 0.00, 0.000, 0.000, 0.000, 14:28:54.035, 1596054534035
28, 7482.22, 0.00, 3181.39, 0.00, 0.00, 0.00, 0.00, 0.00, 0.000, 0.000, 0.000, 14:28:54.035, 1596054534035
29, 7344.89, 0.00, 3097.30, 0.00, 0.00, 0.00, 0.00, 0.00, 0.028, -0.044, 0.976, 14:28:54.048, 1596054534048
30, 7273.77, 0.00, 3063.55, 0.00, 0.00, 0.00, 0.00, 0.00, 0.000, 0.000, 0.000, 14:28:54.049, 1596054534049
31, 7350.35, 0.00, 3092.32, 0.00, 0.00, 0.00, 0.00, 0.00, 0.000, 0.000, 0.000, 14:28:54.049, 1596054534049
32, 7397.44, 0.00, 3094.69, 0.00, 0.00, 0.00, 0.00, 0.00, 0.000, 0.000, 0.000, 14:28:54.049, 1596054534049
33, 7298.27, 0.00, 3038.41, 0.00, 0.00, 0.00, 0.00, 0.00, 0.000, 0.000, 0.000, 14:28:54.064, 1596054534064
34, 7175.16, 0.00, 2965.36, 0.00, 0.00, 0.00, 0.00, 0.00, 0.000, 0.000, 0.000, 14:28:54.065, 1596054534065
35, 7213.78, 0.00, 2966.03, 0.00, 0.00, 0.00, 0.00, 0.00, 0.000, 0.000, 0.000, 14:28:54.065, 1596054534065
36, 7284.52, 0.00, 2982.62, 0.00, 0.00, 0.00, 0.00, 0.00, 0.000, 0.000, 0.000, 14:28:54.065, 1596054534065
37, 7186.06, 0.00, 2914.02, 0.00, 0.00, 0.00, 0.00, 0.00, 0.000, 0.000, 0.000, 14:28:54.077, 1596054534077
38, 7048.85, 0.00, 2835.83, 0.00, 0.00, 0.00, 0.00, 0.00, 0.000, 0.000, 0.000, 14:28:54.077, 1596054534077
39, 7109.15, 0.00, 2871.89, 0.00, 0.00, 0.00, 0.00, 0.00, 0.022, -0.044, 0.972, 14:28:54.078, 1596054534078
40, 7194.76, 0.00, 2897.66, 0.00, 0.00, 0.00, 0.00, 0.00, 0.000, 0.000, 0.000, 14:28:54.094, 1596054534094
41, 7112.95, 0.00, 2830.09, 0.00, 0.00, 0.00, 0.00, 0.00, 0.000, 0.000, 0.000, 14:28:54.094, 1596054534094
42, 6967.02, 0.00, 2747.16, 0.00, 0.00, 0.00, 0.00, 0.00, 0.000, 0.000, 0.000, 14:28:54.094, 1596054534094
43, 6979.80, 0.00, 2751.41, 0.00, 0.00, 0.00, 0.00, 0.00, 0.000, 0.000, 0.000, 14:28:54.094, 1596054534094
44, 7077.48, 0.00, 2787.53, 0.00, 0.00, 0.00, 0.00, 0.00, 0.000, 0.000, 0.000, 14:28:54.108, 1596054534108
45, 7045.25, 0.00, 2752.97, 0.00, 0.00, 0.00, 0.00, 0.00, 0.000, 0.000, 0.000, 14:28:54.108, 1596054534108
46, 6892.18, 0.00, 2662.94, 0.00, 0.00, 0.00, 0.00, 0.00, 0.000, 0.000, 0.000, 14:28:54.108, 1596054534108
47, 6850.27, 0.00, 2629.26, 0.00, 0.00, 0.00, 0.00, 0.00, 0.000, 0.000, 0.000, 14:28:54.108, 1596054534108
48, 6937.71, 0.00, 2657.20, 0.00, 0.00, 0.00, 0.00, 0.00, 0.000, 0.000, 0.000, 14:28:54.123, 1596054534123
49, 6917.84, 0.00, 2618.13, 0.00, 0.00, 0.00, 0.00, 0.00, 0.024, -0.052, 0.978, 14:28:54.123, 1596054534123
50, 6775.08, 0.00, 2534.06, 0.00, 0.00, 0.00, 0.00, 0.00, 0.000, 0.000, 0.000, 14:28:54.123, 1596054534123
51, 6727.63, 0.00, 2512.31, 0.00, 0.00, 0.00, 0.00, 0.00, 0.000, 0.000, 0.000, 14:28:54.124, 1596054534124
52, 6797.30, 0.00, 2527.85, 0.00, 0.00, 0.00, 0.00, 0.00, 0.000, 0.000, 0.000, 14:28:54.138, 1596054534138
53, 6816.03, 0.00, 2511.62, 0.00, 0.00, 0.00, 0.00, 0.00, 0.000, 0.000, 0.000, 14:28:54.138, 1596054534138
54, 6693.19, 0.00, 2439.85, 0.00, 0.00, 0.00, 0.00, 0.00, 0.000, 0.000, 0.000, 14:28:54.138, 1596054534138
55, 6598.06, 0.00, 2385.29, 0.00, 0.00, 0.00, 0.00, 0.00, 0.000, 0.000, 0.000, 14:28:54.154, 1596054534154
56, 6691.78, 0.00, 2432.96, 0.00, 0.00, 0.00, 0.00, 0.00, 0.000, 0.000, 0.000, 14:28:54.154, 1596054534154
57, 6710.75, 0.00, 2404.82, 0.00, 0.00, 0.00, 0.00, 0.00, 0.000, 0.000, 0.000, 14:28:54.155, 1596054534155
58, 6580.51, 0.00, 2314.90, 0.00, 0.00, 0.00, 0.00, 0.00, 0.030, -0.052, 0.978, 14:28:54.155, 1596054534155
59, 6463.36, 0.00, 2250.22, 0.00, 0.00, 0.00, 0.00, 0.00, 0.000, 0.000, 0.000, 14:28:54.168, 1596054534168
60, 6485.67, 0.00, 2237.83, 0.00, 0.00, 0.00, 0.00, 0.00, 0.000, 0.000, 0.000, 14:28:54.169, 1596054534169
61, 6542.33, 0.00, 2238.84, 0.00, 0.00, 0.00, 0.00, 0.00, 0.000, 0.000, 0.000, 14:28:54.169, 1596054534169
62, 6460.06, 0.00, 2182.85, 0.00, 0.00, 0.00, 0.00, 0.00, 0.000, 0.000, 0.000, 14:28:54.169, 1596054534169
63, 6314.55, 0.00, 2097.62, 0.00, 0.00, 0.00, 0.00, 0.00, 0.000, 0.000, 0.000, 14:28:54.183, 1596054534183
64, 6354.91, 0.00, 2116.96, 0.00, 0.00, 0.00, 0.00, 0.00, 0.000, 0.000, 0.000, 14:28:54.183, 1596054534183
65, 6450.13, 0.00, 2151.27, 0.00, 0.00, 0.00, 0.00, 0.00, 0.000, 0.000, 0.000, 14:28:54.183, 1596054534183
66, 6410.21, 0.00, 2121.92, 0.00, 0.00, 0.00, 0.00, 0.00, 0.000, 0.000, 0.000, 14:28:54.184, 1596054534184
67, 6281.60, 0.00, 2056.18, 0.00, 0.00, 0.00, 0.00, 0.00, 0.000, 0.000, 0.000, 14:28:54.198, 1596054534198
68, 6236.72, 0.00, 2007.05, 0.00, 0.00, 0.00, 0.00, 0.00, 0.026, -0.050, 0.976, 14:28:54.199, 1596054534199
69, 6275.50, 0.00, 1984.59, 0.00, 0.00, 0.00, 0.00, 0.00, 0.000, 0.000, 0.000, 14:28:54.199, 1596054534199
70, 6229.41, 0.00, 1932.53, 0.00, 0.00, 0.00, 0.00, 0.00, 0.000, 0.000, 0.000, 14:28:54.213, 1596054534213
71, 6099.97, 0.00, 1865.66, 0.00, 0.00, 0.00, 0.00, 0.00, 0.000, 0.000, 0.000, 14:28:54.213, 1596054534213
72, 6067.65, 0.00, 1844.87, 0.00, 0.00, 0.00, 0.00, 0.00, 0.000, 0.000, 0.000, 14:28:54.213, 1596054534213
73, 6127.64, 0.00, 1846.70, 0.00, 0.00, 0.00, 0.00, 0.00, 0.000, 0.000, 0.000, 14:28:54.213, 1596054534213
74, 6134.55, 0.00, 1831.01, 0.00, 0.00, 0.00, 0.00, 0.00, 0.000, 0.000, 0.000, 14:28:54.230, 1596054534230
75, 5978.85, 0.00, 1732.04, 0.00, 0.00, 0.00, 0.00, 0.00, 0.000, 0.000, 0.000, 14:28:54.231, 1596054534231
76, 5919.73, 0.00, 1702.00, 0.00, 0.00, 0.00, 0.00, 0.00, 0.000, 0.000, 0.000, 14:28:54.231, 1596054534231
77, 6000.30, 0.00, 1730.72, 0.00, 0.00, 0.00, 0.00, 0.00, 0.000, 0.000, 0.000, 14:28:54.232, 1596054534232
78, 5999.01, 0.00, 1691.00, 0.00, 0.00, 0.00, 0.00, 0.00, 0.028, -0.048, 0.976, 14:28:54.243, 1596054534243
79, 5838.07, 0.00, 1578.17, 0.00, 0.00, 0.00, 0.00, 0.00, 0.000, 0.000, 0.000, 14:28:54.243, 1596054534243
80, 5735.90, 0.00, 1520.32, 0.00, 0.00, 0.00, 0.00, 0.00, 0.000, 0.000, 0.000, 14:28:54.244, 1596054534244
81, 5791.40, 0.00, 1532.77, 0.00, 0.00, 0.00, 0.00, 0.00, 0.000, 0.000, 0.000, 14:28:54.244, 1596054534244
82, 5858.12, 0.00, 1549.76, 0.00, 0.00, 0.00, 0.00, 0.00, 0.000, 0.000, 0.000, 14:28:54.259, 1596054534259
83, 5724.75, 0.00, 1453.22, 0.00, 0.00, 0.00, 0.00, 0.00, 0.000, 0.000, 0.000, 14:28:54.259, 1596054534259
84, 5595.60, 0.00, 1378.83, 0.00, 0.00, 0.00, 0.00, 0.00, 0.000, 0.000, 0.000, 14:28:54.259, 1596054534259
85, 5635.63, 0.00, 1386.97, 0.00, 0.00, 0.00, 0.00, 0.00, 0.000, 0.000, 0.000, 14:28:54.273, 1596054534273
86, 5717.42, 0.00, 1411.67, 0.00, 0.00, 0.00, 0.00, 0.00, 0.000, 0.000, 0.000, 14:28:54.273, 1596054534273
87, 5639.37, 0.00, 1356.44, 0.00, 0.00, 0.00, 0.00, 0.00, 0.000, 0.000, 0.000, 14:28:54.273, 1596054534273
88, 5462.07, 0.00, 1240.59, 0.00, 0.00, 0.00, 0.00, 0.00, 0.028, -0.048, 0.976, 14:28:54.273, 1596054534273
89, 5458.81, 0.00, 1220.03, 0.00, 0.00, 0.00, 0.00, 0.00, 0.000, 0.000, 0.000, 14:28:54.288, 1596054534288
90, 5532.06, 0.00, 1232.50, 0.00, 0.00, 0.00, 0.00, 0.00, 0.000, 0.000, 0.000, 14:28:54.288, 1596054534288
91, 5471.53, 0.00, 1178.70, 0.00, 0.00, 0.00, 0.00, 0.00, 0.000, 0.000, 0.000, 14:28:54.288, 1596054534288
92, 5329.06, 0.00, 1099.50, 0.00, 0.00, 0.00, 0.00, 0.00, 0.000, 0.000, 0.000, 14:28:54.288, 1596054534288
93, 5314.75, 0.00, 1084.39, 0.00, 0.00, 0.00, 0.00, 0.00, 0.000, 0.000, 0.000, 14:28:54.303, 1596054534303
94, 5388.42, 0.00, 1097.11, 0.00, 0.00, 0.00, 0.00, 0.00, 0.000, 0.000, 0.000, 14:28:54.304, 1596054534304
95, 5365.04, 0.00, 1063.52, 0.00, 0.00, 0.00, 0.00, 0.00, 0.000, 0.000, 0.000, 14:28:54.304, 1596054534304
96, 5207.60, 0.00, 966.91, 0.00, 0.00, 0.00, 0.00, 0.00, 0.000, 0.000, 0.000, 14:28:54.304, 1596054534304
97, 5183.95, 0.00, 959.92, 0.00, 0.00, 0.00, 0.00, 0.00, 0.000, 0.000, 0.000, 14:28:54.318, 1596054534318
98, 5232.32, 0.00, 951.31, 0.00, 0.00, 0.00, 0.00, 0.00, 0.028, -0.048, 0.970, 14:28:54.318, 1596054534318
99, 5229.15, 0.00, 921.54, 0.00, 0.00, 0.00, 0.00, 0.00, 0.000, 0.000, 0.000, 14:28:54.318, 1596054534318
100, 5061.60, 0.00, 808.98, 0.00, 0.00, 0.00, 0.00, 0.00, 0.000, 0.000, 0.000, 14:28:54.335, 1596054534335
101, 4991.90, 0.00, 772.50, 0.00, 0.00, 0.00, 0.00, 0.00, 0.000, 0.000, 0.000, 14:28:54.335, 1596054534335
102, 5068.50, 0.00, 798.94, 0.00, 0.00, 0.00, 0.00, 0.00, 0.000, 0.000, 0.000, 14:28:54.335, 1596054534335
103, 5075.03, 0.00, 764.30, 0.00, 0.00, 0.00, 0.00, 0.00, 0.000, 0.000, 0.000, 14:28:54.336, 1596054534336
104, 4958.47, 0.00, 692.88, 0.00, 0.00, 0.00, 0.00, 0.00, 0.000, 0.000, 0.000, 14:28:54.348, 1596054534348
105, 4846.42, 0.00, 627.77, 0.00, 0.00, 0.00, 0.00, 0.00, 0.000, 0.000, 0.000, 14:28:54.348, 1596054534348
106, 4875.70, 0.00, 616.33, 0.00, 0.00, 0.00, 0.00, 0.00, 0.000, 0.000, 0.000, 14:28:54.348, 1596054534348
107, 4948.09, 0.00, 637.23, 0.00, 0.00, 0.00, 0.00, 0.00, 0.000, 0.000, 0.000, 14:28:54.348, 1596054534348
108, 4838.24, 0.00, 560.76, 0.00, 0.00, 0.00, 0.00, 0.00, 0.032, -0.050, 0.970, 14:28:54.364, 1596054534364
109, 4699.07, 0.00, 478.26, 0.00, 0.00, 0.00, 0.00, 0.00, 0.000, 0.000, 0.000, 14:28:54.364, 1596054534364
110, 4723.10, 0.00, 474.08, 0.00, 0.00, 0.00, 0.00, 0.00, 0.000, 0.000, 0.000, 14:28:54.364, 1596054534364
111, 4775.09, 0.00, 467.46, 0.00, 0.00, 0.00, 0.00, 0.00, 0.000, 0.000, 0.000, 14:28:54.364, 1596054534364
112, 4690.74, 0.00, 402.35, 0.00, 0.00, 0.00, 0.00, 0.00, 0.000, 0.000, 0.000, 14:28:54.378, 1596054534378
113, 4527.48, 0.00, 301.12, 0.00, 0.00, 0.00, 0.00, 0.00, 0.000, 0.000, 0.000, 14:28:54.379, 1596054534379
114, 4504.17, 0.00, 264.31, 0.00, 0.00, 0.00, 0.00, 0.00, 0.000, 0.000, 0.000, 14:28:54.379, 1596054534379
115, 4584.14, 0.00, 283.44, 0.00, 0.00, 0.00, 0.00, 0.00, 0.000, 0.000, 0.000, 14:28:54.380, 1596054534380
116, 4553.25, 0.00, 254.65, 0.00, 0.00, 0.00, 0.00, 0.00, 0.000, 0.000, 0.000, 14:28:54.393, 1596054534393
117, 4432.60, 0.00, 197.16, 0.00, 0.00, 0.00, 0.00, 0.00, 0.000, 0.000, 0.000, 14:28:54.394, 1596054534394
118, 4396.79, 0.00, 164.98, 0.00, 0.00, 0.00, 0.00, 0.00, 0.032, -0.052, 0.970, 14:28:54.394, 1596054534394
119, 4459.93, 0.00, 168.17, 0.00, 0.00, 0.00, 0.00, 0.00, 0.000, 0.000, 0.000, 14:28:54.410, 1596054534410
120, 4421.85, 0.00, 115.74, 0.00, 0.00, 0.00, 0.00, 0.00, 0.000, 0.000, 0.000, 14:28:54.411, 1596054534411
121, 4264.85, 0.00, 19.00, 0.00, 0.00, 0.00, 0.00, 0.00, 0.000, 0.000, 0.000, 14:28:54.412, 1596054534412
122, 4213.91, 0.00, -11.58, 0.00, 0.00, 0.00, 0.00, 0.00, 0.000, 0.000, 0.000, 14:28:54.412, 1596054534412
123, 4304.86, 0.00, 23.31, 0.00, 0.00, 0.00, 0.00, 0.00, 0.000, 0.000, 0.000, 14:28:54.423, 1596054534423
124, 4305.50, 0.00, -6.17, 0.00, 0.00, 0.00, 0.00, 0.00, 0.000, 0.000, 0.000, 14:28:54.423, 1596054534423
125, 4153.36, 0.00, -104.74, 0.00, 0.00, 0.00, 0.00, 0.00, 0.000, 0.000, 0.000, 14:28:54.424, 1596054534424
126, 4074.92, 0.00, -146.65, 0.00, 0.00, 0.00, 0.00, 0.00, 0.000, 0.000, 0.000, 14:28:54.424, 1596054534424
127, 4151.14, 0.00, -118.82, 0.00, 0.00, 0.00, 0.00, 0.00, 0.000, 0.000, 0.000, 14:28:54.438, 1596054534438
128, 4196.88, 0.00, -117.68, 0.00, 0.00, 0.00, 0.00, 0.00, 0.032, -0.052, 0.974, 14:28:54.439, 1596054534439
129, 4080.69, 0.00, -190.62, 0.00, 0.00, 0.00, 0.00, 0.00, 0.000, 0.000, 0.000, 14:28:54.439, 1596054534439
130, 3938.62, 0.00, -282.57, 0.00, 0.00, 0.00, 0.00, 0.00, 0.000, 0.000, 0.000, 14:28:54.439, 1596054534439
131, 3979.01, 0.00, -280.42, 0.00, 0.00, 0.00, 0.00, 0.00, 0.000, 0.000, 0.000, 14:28:54.453, 1596054534453
132, 4037.42, 0.00, -276.22, 0.00, 0.00, 0.00, 0.00, 0.00, 0.000, 0.000, 0.000, 14:28:54.453, 1596054534453
133, 3922.11, 0.00, -360.65, 0.00, 0.00, 0.00, 0.00, 0.00, 0.000, 0.000, 0.000, 14:28:54.454, 1596054534454
134, 3792.40, 0.00, -431.90, 0.00, 0.00, 0.00, 0.00, 0.00, 0.000, 0.000, 0.000, 14:28:54.468, 1596054534468
135, 3836.83, 0.00, -412.97, 0.00, 0.00, 0.00, 0.00, 0.00, 0.000, 0.000, 0.000, 14:28:54.469, 1596054534469
136, 3911.04, 0.00, -398.00, 0.00, 0.00, 0.00, 0.00, 0.00, 0.000, 0.000, 0.000, 14:28:54.469, 1596054534469
137, 3828.45, 0.00, -465.56, 0.00, 0.00, 0.00, 0.00, 0.00, 0.000, 0.000, 0.000, 14:28:54.469, 1596054534469
138, 3687.32, 0.00, -543.93, 0.00, 0.00, 0.00, 0.00, 0.00, 0.028, -0.052, 0.974, 14:28:54.484, 1596054534484
139, 3691.37, 0.00, -549.32, 0.00, 0.00, 0.00, 0.00, 0.00, 0.000, 0.000, 0.000, 14:28:54.485, 1596054534485
140, 3791.57, 0.00, -510.45, 0.00, 0.00, 0.00, 0.00, 0.00, 0.000, 0.000, 0.000, 14:28:54.485, 1596054534485
141, 3754.40, 0.00, -549.18, 0.00, 0.00, 0.00, 0.00, 0.00, 0.000, 0.000, 0.000, 14:28:54.485, 1596054534485
142, 3580.06, 0.00, -660.74, 0.00, 0.00, 0.00, 0.00, 0.00, 0.000, 0.000, 0.000, 14:28:54.500, 1596054534500
143, 3535.93, 0.00, -697.02, 0.00, 0.00, 0.00, 0.00, 0.00, 0.000, 0.000, 0.000, 14:28:54.501, 1596054534501
144, 3631.64, 0.00, -660.81, 0.00, 0.00, 0.00, 0.00, 0.00, 0.000, 0.000, 0.000, 14:28:54.501, 1596054534501
145, 3616.47, 0.00, -694.67, 0.00, 0.00, 0.00, 0.00, 0.00, 0.000, 0.000, 0.000, 14:28:54.501, 1596054534501
146, 3465.84, 0.00, -786.24, 0.00, 0.00, 0.00, 0.00, 0.00, 0.000, 0.000, 0.000, 14:28:54.512, 1596054534512
147, 3418.95, 0.00, -809.13, 0.00, 0.00, 0.00, 0.00, 0.00, 0.000, 0.000, 0.000, 14:28:54.513, 1596054534513
148, 3506.27, 0.00, -776.01, 0.00, 0.00, 0.00, 0.00, 0.00, 0.028, -0.054, 0.976, 14:28:54.514, 1596054534514
149, 3504.08, 0.00, -811.35, 0.00, 0.00, 0.00, 0.00, 0.00, 0.000, 0.000, 0.000, 14:28:54.529, 1596054534529
150, 3375.47, 0.00, -888.75, 0.00, 0.00, 0.00, 0.00, 0.00, 0.000, 0.000, 0.000, 14:28:54.529, 1596054534529
151, 3293.60, 0.00, -930.86, 0.00, 0.00, 0.00, 0.00, 0.00, 0.000, 0.000, 0.000, 14:28:54.529, 1596054534529
152, 3367.74, 0.00, -902.88, 0.00, 0.00, 0.00, 0.00, 0.00, 0.000, 0.000, 0.000, 14:28:54.529, 1596054534529
153, 3441.03, 0.00, -876.32, 0.00, 0.00, 0.00, 0.00, 0.00, 0.000, 0.000, 0.000, 14:28:54.543, 1596054534543
154, 3313.62, 0.00, -963.58, 0.00, 0.00, 0.00, 0.00, 0.00, 0.000, 0.000, 0.000, 14:28:54.543, 1596054534543
155, 3204.28, 0.00, -1020.45, 0.00, 0.00, 0.00, 0.00, 0.00, 0.000, 0.000, 0.000, 14:28:54.543, 1596054534543
156, 3242.19, 0.00, -1017.54, 0.00, 0.00, 0.00, 0.00, 0.00, 0.000, 0.000, 0.000, 14:28:54.544, 1596054534544
157, 3301.60, 0.00, -1014.28, 0.00, 0.00, 0.00, 0.00, 0.00, 0.032, -0.052, 0.974, 14:28:54.558, 1596054534558
158, 3204.48, 0.00, -1084.19, 0.00, 0.00, 0.00, 0.00, 0.00, 0.000, 0.000, 0.000, 14:28:54.559, 1596054534559
159, 3069.48, 0.00, -1159.07, 0.00, 0.00, 0.00, 0.00, 0.00, 0.000, 0.000, 0.000, 14:28:54.559, 1596054534559
160, 3090.46, 0.00, -1159.74, 0.00, 0.00, 0.00, 0.00, 0.00, 0.000, 0.000, 0.000, 14:28:54.559, 1596054534559
161, 3204.59, 0.00, -1105.61, 0.00, 0.00, 0.00, 0.00, 0.00, 0.000, 0.000, 0.000, 14:28:54.575, 1596054534575
162, 3155.78, 0.00, -1143.14, 0.00, 0.00, 0.00, 0.00, 0.00, 0.000, 0.000, 0.000, 14:28:54.575, 1596054534575
163, 3004.63, 0.00, -1231.63, 0.00, 0.00, 0.00, 0.00, 0.00, 0.000, 0.000, 0.000, 14:28:54.575, 1596054534575
164, 2994.98, 0.00, -1246.49, 0.00, 0.00, 0.00, 0.00, 0.00, 0.000, 0.000, 0.000, 14:28:54.589, 1596054534589
165, 3085.35, 0.00, -1217.23, 0.00, 0.00, 0.00, 0.00, 0.00, 0.000, 0.000, 0.000, 14:28:54.590, 1596054534590
166, 3056.51, 0.00, -1251.59, 0.00, 0.00, 0.00, 0.00, 0.00, 0.000, 0.000, 0.000, 14:28:54.590, 1596054534590
167, 2919.74, 0.00, -1326.71, 0.00, 0.00, 0.00, 0.00, 0.00, 0.034, -0.048, 0.974, 14:28:54.591, 1596054534591
168, 2892.65, 0.00, -1341.86, 0.00, 0.00, 0.00, 0.00, 0.00, 0.000, 0.000, 0.000, 14:28:54.604, 1596054534604
169, 2997.10, 0.00, -1295.33, 0.00, 0.00, 0.00, 0.00, 0.00, 0.000, 0.000, 0.000, 14:28:54.604, 1596054534604
170, 3007.92, 0.00, -1306.59, 0.00, 0.00, 0.00, 0.00, 0.00, 0.000, 0.000, 0.000, 14:28:54.604, 1596054534604
171, 2871.19, 0.00, -1386.52, 0.00, 0.00, 0.00, 0.00, 0.00, 0.000, 0.000, 0.000, 14:28:54.604, 1596054534604
172, 2823.16, 0.00, -1406.24, 0.00, 0.00, 0.00, 0.00, 0.00, 0.000, 0.000, 0.000, 14:28:54.618, 1596054534618
173, 2889.03, 0.00, -1392.76, 0.00, 0.00, 0.00, 0.00, 0.00, 0.000, 0.000, 0.000, 14:28:54.618, 1596054534618
174, 2904.23, 0.00, -1414.95, 0.00, 0.00, 0.00, 0.00, 0.00, 0.000, 0.000, 0.000, 14:28:54.619, 1596054534619
175, 2773.49, 0.00, -1496.52, 0.00, 0.00, 0.00, 0.00, 0.00, 0.000, 0.000, 0.000, 14:28:54.619, 1596054534619
176, 2685.96, 0.00, -1540.82, 0.00, 0.00, 0.00, 0.00, 0.00, 0.000, 0.000, 0.000, 14:28:54.633, 1596054534633
177, 2777.96, 0.00, -1492.78, 0.00, 0.00, 0.00, 0.00, 0.00, 0.032, -0.048, 0.976, 14:28:54.633, 1596054534633
178, 2842.43, 0.00, -1477.83, 0.00, 0.00, 0.00, 0.00, 0.00, 0.000, 0.000, 0.000, 14:28:54.634, 1596054534634
179, 2716.70, 0.00, -1565.72, 0.00, 0.00, 0.00, 0.00, 0.00, 0.000, 0.000, 0.000, 14:28:54.648, 1596054534648
180, 2617.48, 0.00, -1610.69, 0.00, 0.00, 0.00, 0.00, 0.00, 0.000, 0.000, 0.000, 14:28:54.648, 1596054534648
181, 2688.42, 0.00, -1572.11, 0.00, 0.00, 0.00, 0.00, 0.00, 0.000, 0.000, 0.000, 14:28:54.648, 1596054534648
182, 2777.00, 0.00, -1540.73, 0.00, 0.00, 0.00, 0.00, 0.00, 0.000, 0.000, 0.000, 14:28:54.648, 1596054534648
183, 2718.84, 0.00, -1575.35, 0.00, 0.00, 0.00, 0.00, 0.00, 0.000, 0.000, 0.000, 14:28:54.664, 1596054534664
184, 2596.24, 0.00, -1636.82, 0.00, 0.00, 0.00, 0.00, 0.00, 0.000, 0.000, 0.000, 14:28:54.665, 1596054534665
185, 2621.48, 0.00, -1629.38, 0.00, 0.00, 0.00, 0.00, 0.00, 0.000, 0.000, 0.000, 14:28:54.665, 1596054534665
186, 2725.77, 0.00, -1585.74, 0.00, 0.00, 0.00, 0.00, 0.00, 0.000, 0.000, 0.000, 14:28:54.665, 1596054534665
187, 2663.97, 0.00, -1640.06, 0.00, 0.00, 0.00, 0.00, 0.00, 0.032, -0.048, 0.974, 14:28:54.679, 1596054534679
188, 2519.76, 0.00, -1721.35, 0.00, 0.00, 0.00, 0.00, 0.00, 0.000, 0.000, 0.000, 14:28:54.679, 1596054534679
189, 2533.10, 0.00, -1709.15, 0.00, 0.00, 0.00, 0.00, 0.00, 0.000, 0.000, 0.000, 14:28:54.679, 1596054534679
190, 2659.19, 0.00, -1644.17, 0.00, 0.00, 0.00, 0.00, 0.00, 0.000, 0.000, 0.000, 14:28:54.679, 1596054534679
191, 2647.36, 0.00, -1665.29, 0.00, 0.00, 0.00, 0.00, 0.00, 0.000, 0.000, 0.000, 14:28:54.694, 1596054534694
192, 2533.97, 0.00, -1717.46, 0.00, 0.00, 0.00, 0.00, 0.00, 0.000, 0.000, 0.000, 14:28:54.695, 1596054534695
193, 2508.49, 0.00, -1727.43, 0.00, 0.00, 0.00, 0.00, 0.00, 0.000, 0.000, 0.000, 14:28:54.695, 1596054534695
194, 2597.52, 0.00, -1695.74, 0.00, 0.00, 0.00, 0.00, 0.00, 0.000, 0.000, 0.000, 14:28:54.708, 1596054534708
195, 2618.31, 0.00, -1700.39, 0.00, 0.00, 0.00, 0.00, 0.00, 0.000, 0.000, 0.000, 14:28:54.708, 1596054534708
196, 2491.35, 0.00, -1771.78, 0.00, 0.00, 0.00, 0.00, 0.00, 0.000, 0.000, 0.000, 14:28:54.709, 1596054534709
197, 2442.53, 0.00, -1788.34, 0.00, 0.00, 0.00, 0.00, 0.00, 0.034, -0.048, 0.970, 14:28:54.709, 1596054534709
198, 2560.68, 0.00, -1721.22, 0.00, 0.00, 0.00, 0.00, 0.00, 0.000, 0.000, 0.000, 14:28:54.723, 1596054534723
199, 2607.53, 0.00, -1715.03, 0.00, 0.00, 0.00, 0.00, 0.00, 0.000, 0.000, 0.000, 14:28:54.723, 1596054534723
200, 2483.93, 0.00, -1791.87, 0.00, 0.00, 0.00, 0.00, 0.00, 0.000, 0.000, 0.000, 14:28:54.723, 1596054534723
201, 2403.39, 0.00, -1826.76, 0.00, 0.00, 0.00, 0.00, 0.00, 0.000, 0.000, 0.000, 14:28:54.724, 1596054534724
202, 2501.38, 0.00, -1769.92, 0.00, 0.00, 0.00, 0.00, 0.00, 0.000, 0.000, 0.000, 14:28:54.738, 1596054534738
203, 2584.84, 0.00, -1738.07, 0.00, 0.00, 0.00, 0.00, 0.00, 0.000, 0.000, 0.000, 14:28:54.739, 1596054534739
204, 2477.49, 0.00, -1810.58, 0.00, 0.00, 0.00, 0.00, 0.00, 0.000, 0.000, 0.000, 14:28:54.739, 1596054534739
205, 2380.97, 0.00, -1850.75, 0.00, 0.00, 0.00, 0.00, 0.00, 0.000, 0.000, 0.000, 14:28:54.739, 1596054534739
206, 2464.59, 0.00, -1796.63, 0.00, 0.00, 0.00, 0.00, 0.00, 0.000, 0.000, 0.000, 14:28:54.752, 1596054534752
207, 2557.60, 0.00, -1761.88, 0.00, 0.00, 0.00, 0.00, 0.00, 0.030, -0.044, 0.978, 14:28:54.753, 1596054534753
208, 2507.06, 0.00, -1792.32, 0.00, 0.00, 0.00, 0.00, 0.00, 0.000, 0.000, 0.000, 14:28:54.753, 1596054534753
209, 2379.77, 0.00, -1858.06, 0.00, 0.00, 0.00, 0.00, 0.00, 0.000, 0.000, 0.000, 14:28:54.768, 1596054534768
210, 2428.99, 0.00, -1822.92, 0.00, 0.00, 0.00, 0.00, 0.00, 0.000, 0.000, 0.000, 14:28:54.768, 1596054534768
211, 2532.36, 0.00, -1780.74, 0.00, 0.00, 0.00, 0.00, 0.00, 0.000, 0.000, 0.000, 14:28:54.769, 1596054534769
212, 2495.53, 0.00, -1814.20, 0.00, 0.00, 0.00, 0.00, 0.00, 0.000, 0.000, 0.000, 14:28:54.769, 1596054534769
213, 2368.82, 0.00, -1877.66, 0.00, 0.00, 0.00, 0.00, 0.00, 0.000, 0.000, 0.000, 14:28:54.782, 1596054534782
214, 2379.48, 0.00, -1864.20, 0.00, 0.00, 0.00, 0.00, 0.00, 0.000, 0.000, 0.000, 14:28:54.783, 1596054534783
215, 2486.05, 0.00, -1818.07, 0.00, 0.00, 0.00, 0.00, 0.00, 0.000, 0.000, 0.000, 14:28:54.783, 1596054534783
216, 2478.76, 0.00, -1838.94, 0.00, 0.00, 0.00, 0.00, 0.00, 0.000, 0.000, 0.000, 14:28:54.783, 1596054534783
217, 2357.21, 0.00, -1900.01, 0.00, 0.00, 0.00, 0.00, 0.00, 0.028, -0.044, 0.974, 14:28:54.799, 1596054534799
218, 2333.70, 0.00, -1903.90, 0.00, 0.00, 0.00, 0.00, 0.00, 0.000, 0.000, 0.000, 14:28:54.800, 1596054534800
219, 2458.98, 0.00, -1834.94, 0.00, 0.00, 0.00, 0.00, 0.00, 0.000, 0.000, 0.000, 14:28:54.801, 1596054534801
220, 2493.07, 0.00, -1830.29, 0.00, 0.00, 0.00, 0.00, 0.00, 0.000, 0.000, 0.000, 14:28:54.801, 1596054534801
221, 2394.79, 0.00, -1874.73, 0.00, 0.00, 0.00, 0.00, 0.00, 0.000, 0.000, 0.000, 14:28:54.813, 1596054534813
222, 2370.65, 0.00, -1863.38, 0.00, 0.00, 0.00, 0.00, 0.00, 0.000, 0.000, 0.000, 14:28:54.813, 1596054534813
223, 2466.65, 0.00, -1816.26, 0.00, 0.00, 0.00, 0.00, 0.00, 0.000, 0.000, 0.000, 14:28:54.813, 1596054534813
224, 2540.12, 0.00, -1786.04, 0.00, 0.00, 0.00, 0.00, 0.00, 0.000, 0.000, 0.000, 14:28:54.829, 1596054534829
225, 2454.85, 0.00, -1827.64, 0.00, 0.00, 0.00, 0.00, 0.00, 0.000, 0.000, 0.000, 14:28:54.829, 1596054534829
226, 2405.07, 0.00, -1828.06, 0.00, 0.00, 0.00, 0.00, 0.00, 0.000, 0.000, 0.000, 14:28:54.829, 1596054534829
227, 2486.50, 0.00, -1785.03, 0.00, 0.00, 0.00, 0.00, 0.00, 0.030, -0.044, 0.972, 14:28:54.829, 1596054534829
228, 2572.86, 0.00, -1752.51, 0.00, 0.00, 0.00, 0.00, 0.00, 0.000, 0.000, 0.000, 14:28:54.843, 1596054534843
229, 2511.02, 0.00, -1783.31, 0.00, 0.00, 0.00, 0.00, 0.00, 0.000, 0.000, 0.000, 14:28:54.843, 1596054534843
230, 2424.94, 0.00, -1811.03, 0.00, 0.00, 0.00, 0.00, 0.00, 0.000, 0.000, 0.000, 14:28:54.843, 1596054534843
231, 2513.21, 0.00, -1748.64, 0.00, 0.00, 0.00, 0.00, 0.00, 0.000, 0.000, 0.000, 14:28:54.843, 1596054534843
232, 2646.02, 0.00, -1675.71, 0.00, 0.00, 0.00, 0.00, 0.00, 0.000, 0.000, 0.000, 14:28:54.858, 1596054534858
233, 2587.04, 0.00, -1718.60, 0.00, 0.00, 0.00, 0.00, 0.00, 0.000, 0.000, 0.000, 14:28:54.858, 1596054534858
234, 2469.73, 0.00, -1772.49, 0.00, 0.00, 0.00, 0.00, 0.00, 0.000, 0.000, 0.000, 14:28:54.858, 1596054534858
235, 2522.89, 0.00, -1730.05, 0.00, 0.00, 0.00, 0.00, 0.00, 0.000, 0.000, 0.000, 14:28:54.858, 1596054534858
236, 2644.30, 0.00, -1670.14, 0.00, 0.00, 0.00, 0.00, 0.00, 0.000, 0.000, 0.000, 14:28:54.874, 1596054534874
237, 2658.70, 0.00, -1656.06, 0.00, 0.00, 0.00, 0.00, 0.00, 0.032, -0.042, 0.968, 14:28:54.875, 1596054534875
238, 2556.06, 0.00, -1695.58, 0.00, 0.00, 0.00, 0.00, 0.00, 0.000, 0.000, 0.000, 14:28:54.875, 1596054534875
239, 2574.94, 0.00, -1670.35, 0.00, 0.00, 0.00, 0.00, 0.00, 0.000, 0.000, 0.000, 14:28:54.876, 1596054534876
240, 2700.27, 0.00, -1604.94, 0.00, 0.00, 0.00, 0.00, 0.00, 0.000, 0.000, 0.000, 14:28:54.889, 1596054534889
241, 2734.76, 0.00, -1587.82, 0.00, 0.00, 0.00, 0.00, 0.00, 0.000, 0.000, 0.000, 14:28:54.889, 1596054534889
242, 2610.84, 0.00, -1652.35, 0.00, 0.00, 0.00, 0.00, 0.00, 0.000, 0.000, 0.000, 14:28:54.889, 1596054534889
243, 2592.18, 0.00, -1647.59, 0.00, 0.00, 0.00, 0.00, 0.00, 0.000, 0.000, 0.000, 14:28:54.905, 1596054534905
244, 2723.96, 0.00, -1570.48, 0.00, 0.00, 0.00, 0.00, 0.00, 0.000, 0.000, 0.000, 14:28:54.905, 1596054534905
245, 2784.56, 0.00, -1542.65, 0.00, 0.00, 0.00, 0.00, 0.00, 0.000, 0.000, 0.000, 14:28:54.906, 1596054534906
246, 2704.76, 0.00, -1570.75, 0.00, 0.00, 0.00, 0.00, 0.00, 0.000, 0.000, 0.000, 14:28:54.906, 1596054534906
247, 2681.43, 0.00, -1554.94, 0.00, 0.00, 0.00, 0.00, 0.00, 0.028, -0.046, 0.968, 14:28:54.919, 1596054534919
248, 2779.93, 0.00, -1503.13, 0.00, 0.00, 0.00, 0.00, 0.00, 0.000, 0.000, 0.000, 14:28:54.919, 1596054534919
249, 2859.53, 0.00, -1469.90, 0.00, 0.00, 0.00, 0.00, 0.00, 0.000, 0.000, 0.000, 14:28:54.919, 1596054534919
250, 2792.09, 0.00, -1496.05, 0.00, 0.00, 0.00, 0.00, 0.00, 0.000, 0.000, 0.000, 14:28:54.919, 1596054534919
251, 2728.72, 0.00, -1508.21, 0.00, 0.00, 0.00, 0.00, 0.00, 0.000, 0.000, 0.000, 14:28:54.934, 1596054534934
252, 2848.82, 0.00, -1424.10, 0.00, 0.00, 0.00, 0.00, 0.00, 0.000, 0.000, 0.000, 14:28:54.934, 1596054534934
253, 2953.31, 0.00, -1374.54, 0.00, 0.00, 0.00, 0.00, 0.00, 0.000, 0.000, 0.000, 14:28:54.934, 1596054534934
254, 2880.16, 0.00, -1419.83, 0.00, 0.00, 0.00, 0.00, 0.00, 0.000, 0.000, 0.000, 14:28:54.934, 1596054534934
255, 2786.90, 0.00, -1453.40, 0.00, 0.00, 0.00, 0.00, 0.00, 0.000, 0.000, 0.000, 14:28:54.948, 1596054534948
0, 2857.92, 0.00, -1405.32, 0.00, 0.00, 0.00, 0.00, 0.00, 0.028, -0.036, 0.964, 14:28:54.949, 1596054534949
1, 3000.45, 0.00, -1322.89, 0.00, 0.00, 0.00, 0.00, 0.00, 0.000, 0.000, 0.000, 14:28:54.950, 1596054534950
2, 2985.84, 0.00, -1324.77, 0.00, 0.00, 0.00, 0.00, 0.00, 0.000, 0.000, 0.000, 14:28:54.963, 1596054534963
3, 2885.88, 0.00, -1361.76, 0.00, 0.00, 0.00, 0.00, 0.00, 0.000, 0.000, 0.000, 14:28:54.964, 1596054534964
4, 2950.07, 0.00, -1304.16, 0.00, 0.00, 0.00, 0.00, 0.00, 0.000, 0.000, 0.000, 14:28:54.964, 1596054534964
5, 3097.48, 0.00, -1218.26, 0.00, 0.00, 0.00, 0.00, 0.00, 0.000, 0.000, 0.000, 14:28:54.964, 1596054534964
6, 3120.95, 0.00, -1198.57, 0.00, 0.00, 0.00, 0.00, 0.00, 0.000, 0.000, 0.000, 14:28:54.978, 1596054534978
7, 3022.02, 0.00, -1235.60, 0.00, 0.00, 0.00, 0.00, 0.00, 0.000, 0.000, 0.000, 14:28:54.978, 1596054534978
8, 3014.71, 0.00, -1232.74, 0.00, 0.00, 0.00, 0.00, 0.00, 0.000, 0.000, 0.000, 14:28:54.979, 1596054534979
9, 3159.31, 0.00, -1146.42, 0.00, 0.00, 0.00, 0.00, 0.00, 0.000, 0.000, 0.000, 14:28:54.979, 1596054534979
10, 3229.47, 0.00, -1097.36, 0.00, 0.00, 0.00, 0.00, 0.00, 0.026, -0.042, 0.970, 14:28:54.995, 1596054534995
11, 3131.17, 0.00, -1137.73, 0.00, 0.00, 0.00, 0.00, 0.00, 0.000, 0.000, 0.000, 14:28:54.995, 1596054534995
12, 3125.96, 0.00, -1115.60, 0.00, 0.00, 0.00, 0.00, 0.00, 0.000, 0.000, 0.000, 14:28:54.995, 1596054534995
13, 3269.34, 0.00, -1025.86, 0.00, 0.00, 0.00, 0.00, 0.00, 0.000, 0.000, 0.000, 14:28:54.995, 1596054534995
14, 3349.01, 0.00, -982.56, 0.00, 0.00, 0.00, 0.00, 0.00, 0.000, 0.000, 0.000, 14:28:55.008, 1596054535008
15, 3260.14, 0.00, -1021.41, 0.00, 0.00, 0.00, 0.00, 0.00, 0.000, 0.000, 0.000, 14:28:55.008, 1596054535008
16, 3212.86, 0.00, -1026.39, 0.00, 0.00, 0.00, 0.00, 0.00, 0.000, 0.000, 0.000, 14:28:55.008, 1596054535008
17, 3322.54, 0.00, -961.17, 0.00, 0.00, 0.00, 0.00, 0.00, 0.000, 0.000, 0.000, 14:28:55.023, 1596054535023
18, 3441.70, 0.00, -890.99, 0.00, 0.00, 0.00, 0.00, 0.00, 0.000, 0.000, 0.000, 14:28:55.023, 1596054535023
19, 3382.89, 0.00, -911.64, 0.00, 0.00, 0.00, 0.00, 0.00, 0.000, 0.000, 0.000, 14:28:55.023, 1596054535023
20, 3329.94, 0.00, -910.57, 0.00, 0.00, 0.00, 0.00, 0.00, 0.030, -0.046, 0.976, 14:28:55.023, 1596054535023
21, 3456.07, 0.00, -817.49, 0.00, 0.00, 0.00, 0.00, 0.00, 0.000, 0.000, 0.000, 14:28:55.038, 1596054535038
22, 3573.60, 0.00, -756.83, 0.00, 0.00, 0.00, 0.00, 0.00, 0.000, 0.000, 0.000, 14:28:55.038, 1596054535038
23, 3528.69, 0.00, -777.51, 0.00, 0.00, 0.00, 0.00, 0.00, 0.000, 0.000, 0.000, 14:28:55.039, 1596054535039
24, 3455.94, 0.00, -789.33, 0.00, 0.00, 0.00, 0.00, 0.00, 0.000, 0.000, 0.000, 14:28:55.039, 1596054535039
25, 3529.54, 0.00, -734.57, 0.00, 0.00, 0.00, 0.00, 0.00, 0.000, 0.000, 0.000, 14:28:55.054, 1596054535054
26, 3680.21, 0.00, -644.53, 0.00, 0.00, 0.00, 0.00, 0.00, 0.000, 0.000, 0.000, 14:28:55.055, 1596054535055
27, 3694.65, 0.00, -621.67, 0.00, 0.00, 0.00, 0.00, 0.00, 0.000, 0.000, 0.000, 14:28:55.055, 1596054535055
28, 3602.97, 0.00, -650.26, 0.00, 0.00, 0.00, 0.00, 0.00, 0.000, 0.000, 0.000, 14:28:55.055, 1596054535055
29, 3635.60, 0.00, -619.97, 0.00, 0.00, 0.00, 0.00, 0.00, 0.000, 0.000, 0.000, 14:28:55.068, 1596054535068
30, 3780.15, 0.00, -536.84, 0.00, 0.00, 0.00, 0.00, 0.00, 0.028, -0.046, 0.974, 14:28:55.068, 1596054535068
31, 3816.45, 0.00, -508.84, 0.00, 0.00, 0.00, 0.00, 0.00, 0.000, 0.000, 0.000, 14:28:55.068, 1596054535068
32, 3728.78, 0.00, -534.52, 0.00, 0.00, 0.00, 0.00, 0.00, 0.000, 0.000, 0.000, 14:28:55.083, 1596054535083
33, 3758.76, 0.00, -490.08, 0.00, 0.00, 0.00, 0.00, 0.00, 0.000, 0.000, 0.000, 14:28:55.083, 1596054535083
34, 3908.00, 0.00, -398.62, 0.00, 0.00, 0.00, 0.00, 0.00, 0.000, 0.000, 0.000, 14:28:55.083, 1596054535083
35, 3963.01, 0.00, -368.69, 0.00, 0.00, 0.00, 0.00, 0.00, 0.000, 0.000, 0.000, 14:28:55.083, 1596054535083
36, 3884.08, 0.00, -391.42, 0.00, 0.00, 0.00, 0.00, 0.00, 0.000, 0.000, 0.000, 14:28:55.099, 1596054535099
37, 3883.77, 0.00, -360.53, 0.00, 0.00, 0.00, 0.00, 0.00, 0.000, 0.000, 0.000, 14:28:55.099, 1596054535099
38, 4022.96, 0.00, -272.62, 0.00, 0.00, 0.00, 0.00, 0.00, 0.000, 0.000, 0.000, 14:28:55.099, 1596054535099
39, 4132.14, 0.00, -202.93, 0.00, 0.00, 0.00, 0.00, 0.00, 0.000, 0.000, 0.000, 14:28:55.099, 1596054535099
40, 4063.35, 0.00, -224.52, 0.00, 0.00, 0.00, 0.00, 0.00, 0.026, -0.046, 0.972, 14:28:55.113, 1596054535113
41, 3996.25, 0.00, -246.23, 0.00, 0.00, 0.00, 0.00, 0.00, 0.000, 0.000, 0.000, 14:28:55.114, 1596054535114
42, 4121.06, 0.00, -163.37, 0.00, 0.00, 0.00, 0.00, 0.00, 0.000, 0.000, 0.000, 14:28:55.114, 1596054535114
43, 4241.18, 0.00, -94.32, 0.00, 0.00, 0.00, 0.00, 0.00, 0.000, 0.000, 0.000, 14:28:55.114, 1596054535114
44, 4196.32, 0.00, -104.23, 0.00, 0.00, 0.00, 0.00, 0.00, 0.000, 0.000, 0.000, 14:28:55.130, 1596054535130
45, 4148.93, 0.00, -95.40, 0.00, 0.00, 0.00, 0.00, 0.00, 0.000, 0.000, 0.000, 14:28:55.131, 1596054535131
46, 4255.08, 0.00, -19.09, 0.00, 0.00, 0.00, 0.00, 0.00, 0.000, 0.000, 0.000, 14:28:55.132, 1596054535132
47, 4392.32, 0.00, 60.15, 0.00, 0.00, 0.00, 0.00, 0.00, 0.000, 0.000, 0.000, 14:28:55.143, 1596054535143
48, 4368.49, 0.00, 56.64, 0.00, 0.00, 0.00, 0.00, 0.00, 0.000, 0.000, 0.000, 14:28:55.143, 1596054535143
49, 4306.42, 0.00, 56.62, 0.00, 0.00, 0.00, 0.00, 0.00, 0.000, 0.000, 0.000, 14:28:55.143, 1596054535143
50, 4391.87, 0.00, 126.76, 0.00, 0.00, 0.00, 0.00, 0.00, 0.026, -0.048, 0.972, 14:28:55.144, 1596054535144
51, 4559.93, 0.00, 233.60, 0.00, 0.00, 0.00, 0.00, 0.00, 0.000, 0.000, 0.000, 14:28:55.158, 1596054535158
52, 4544.18, 0.00, 222.40, 0.00, 0.00, 0.00, 0.00, 0.00, 0.000, 0.000, 0.000, 14:28:55.158, 1596054535158
53, 4431.21, 0.00, 172.62, 0.00, 0.00, 0.00, 0.00, 0.00, 0.000, 0.000, 0.000, 14:28:55.158, 1596054535158
54, 4491.78, 0.00, 234.76, 0.00, 0.00, 0.00, 0.00, 0.00, 0.000, 0.000, 0.000, 14:28:55.159, 1596054535159
55, 4676.63, 0.00, 358.99, 0.00, 0.00, 0.00, 0.00, 0.00, 0.000, 0.000, 0.000, 14:28:55.174, 1596054535174
56, 4735.08, 0.00, 405.26, 0.00, 0.00, 0.00, 0.00, 0.00, 0.000, 0.000, 0.000, 14:28:55.174, 1596054535174
57, 4630.19, 0.00, 360.94, 0.00, 0.00, 0.00, 0.00, 0.00, 0.000, 0.000, 0.000, 14:28:55.174, 1596054535174
58, 4633.99, 0.00, 383.53, 0.00, 0.00, 0.00, 0.00, 0.00, 0.000, 0.000, 0.000, 14:28:55.174, 1596054535174
59, 4786.20, 0.00, 478.89, 0.00, 0.00, 0.00, 0.00, 0.00, 0.000, 0.000, 0.000, 14:28:55.188, 1596054535188
60, 4845.05, 0.00, 509.53, 0.00, 0.00, 0.00, 0.00, 0.00, 0.026, -0.046, 0.966, 14:28:55.188, 1596054535188
61, 4767.74, 0.00, 486.44, 0.00, 0.00, 0.00, 0.00, 0.00, 0.000, 0.000, 0.000, 14:28:55.188, 1596054535188
62, 4752.63, 0.00, 505.73, 0.00, 0.00, 0.00, 0.00, 0.00, 0.000, 0.000, 0.000, 14:28:55.204, 1596054535204
63, 4907.28, 0.00, 610.96, 0.00, 0.00, 0.00, 0.00, 0.00, 0.000, 0.000, 0.000, 14:28:55.205, 1596054535205
64, 5035.96, 0.00, 697.08, 0.00, 0.00, 0.00, 0.00, 0.00, 0.000, 0.000, 0.000, 14:28:55.205, 1596054535205
65, 4953.93, 0.00, 659.60, 0.00, 0.00, 0.00, 0.00, 0.00, 0.000, 0.000, 0.000, 14:28:55.206, 1596054535206
66, 4914.50, 0.00, 668.27, 0.00, 0.00, 0.00, 0.00, 0.00, 0.000, 0.000, 0.000, 14:28:55.220, 1596054535220
67, 5069.62, 0.00, 784.12, 0.00, 0.00, 0.00, 0.00, 0.00, 0.000, 0.000, 0.000, 14:28:55.220, 1596054535220
68, 5178.30, 0.00, 840.07, 0.00, 0.00, 0.00, 0.00, 0.00, 0.000, 0.000, 0.000, 14:28:55.220, 1596054535220
69, 5149.73, 0.00, 843.62, 0.00, 0.00, 0.00, 0.00, 0.00, 0.000, 0.000, 0.000, 14:28:55.220, 1596054535220
70, 5092.44, 0.00, 844.31, 0.00, 0.00, 0.00, 0.00, 0.00, 0.030, -0.046, 0.972, 14:28:55.235, 1596054535235
71, 5212.34, 0.00, 937.37, 0.00, 0.00, 0.00, 0.00, 0.00, 0.000, 0.000, 0.000, 14:28:55.237, 1596054535237
72, 5355.88, 0.00, 1021.56, 0.00, 0.00, 0.00, 0.00, 0.00, 0.000, 0.000, 0.000, 14:28:55.237, 1596054535237
73, 5311.80, 0.00, 993.94, 0.00, 0.00, 0.00, 0.00, 0.00, 0.000, 0.000, 0.000, 14:28:55.237, 1596054535237
74, 5243.23, 0.00, 988.08, 0.00, 0.00, 0.00, 0.00, 0.00, 0.000, 0.000, 0.000, 14:28:55.248, 1596054535248
75, 5313.61, 0.00, 1047.18, 0.00, 0.00, 0.00, 0.00, 0.00, 0.000, 0.000, 0.000, 14:28:55.248, 1596054535248
76, 5488.00, 0.00, 1160.30, 0.00, 0.00, 0.00, 0.00, 0.00, 0.000, 0.000, 0.000, 14:28:55.249, 1596054535249
77, 5496.67, 0.00, 1169.73, 0.00, 0.00, 0.00, 0.00, 0.00, 0.000, 0.000, 0.000, 14:28:55.264, 1596054535264
78, 5407.69, 0.00, 1143.69, 0.00, 0.00, 0.00, 0.00, 0.00, 0.000, 0.000, 0.000, 14:28:55.264, 1596054535264
79, 5470.68, 0.00, 1211.78, 0.00, 0.00, 0.00, 0.00, 0.00, 0.000, 0.000, 0.000, 14:28:55.264, 1596054535264
80, 5627.43, 0.00, 1308.78, 0.00, 0.00, 0.00, 0.00, 0.00, 0.026, -0.042, 0.976, 14:28:55.264, 1596054535264
81, 5702.78, 0.00, 1367.81, 0.00, 0.00, 0.00, 0.00, 0.00, 0.000, 0.000, 0.000, 14:28:55.280, 1596054535280
82, 5602.89, 0.00, 1327.20, 0.00, 0.00, 0.00, 0.00, 0.00, 0.000, 0.000, 0.000, 14:28:55.280, 1596054535280
83, 5594.48, 0.00, 1341.28, 0.00, 0.00, 0.00, 0.00, 0.00, 0.000, 0.000, 0.000, 14:28:55.280, 1596054535280
84, 5738.50, 0.00, 1430.76, 0.00, 0.00, 0.00, 0.00, 0.00, 0.000, 0.000, 0.000, 14:28:55.280, 1596054535280
85, 5824.28, 0.00, 1484.13, 0.00, 0.00, 0.00, 0.00, 0.00, 0.000, 0.000, 0.000, 14:28:55.294, 1596054535294
86, 5764.38, 0.00, 1476.13, 0.00, 0.00, 0.00, 0.00, 0.00, 0.000, 0.000, 0.000, 14:28:55.295, 1596054535295
87, 5734.54, 0.00, 1484.69, 0.00, 0.00, 0.00, 0.00, 0.00, 0.000, 0.000, 0.000, 14:28:55.295, 1596054535295
88, 5870.73, 0.00, 1573.59, 0.00, 0.00, 0.00, 0.00, 0.00, 0.000, 0.000, 0.000, 14:28:55.295, 1596054535295
89, 5981.30, 0.00, 1638.99, 0.00, 0.00, 0.00, 0.00, 0.00, 0.024, -0.044, 0.976, 14:28:55.308, 1596054535308
90, 5937.32, 0.00, 1636.80, 0.00, 0.00, 0.00, 0.00, 0.00, 0.000, 0.000, 0.000, 14:28:55.309, 1596054535309
91, 5899.99, 0.00, 1650.30, 0.00, 0.00, 0.00, 0.00, 0.00, 0.000, 0.000, 0.000, 14:28:55.309, 1596054535309
92, 6022.97, 0.00, 1736.69, 0.00, 0.00, 0.00, 0.00, 0.00, 0.000, 0.000, 0.000, 14:28:55.325, 1596054535325
93, 6125.50, 0.00, 1784.50, 0.00, 0.00, 0.00, 0.00, 0.00, 0.000, 0.000, 0.000, 14:28:55.325, 1596054535325
94, 6094.40, 0.00, 1781.97, 0.00, 0.00, 0.00, 0.00, 0.00, 0.000, 0.000, 0.000, 14:28:55.325, 1596054535325
95, 6019.64, 0.00, 1766.55, 0.00, 0.00, 0.00, 0.00, 0.00, 0.000, 0.000, 0.000, 14:28:55.325, 1596054535325
96, 6117.94, 0.00, 1841.43, 0.00, 0.00, 0.00, 0.00, 0.00, 0.000, 0.000, 0.000, 14:28:55.338, 1596054535338
97, 6288.73, 0.00, 1951.71, 0.00, 0.00, 0.00, 0.00, 0.00, 0.000, 0.000, 0.000, 14:28:55.339, 1596054535339
98, 6260.97, 0.00, 1937.52, 0.00, 0.00, 0.00, 0.00, 0.00, 0.000, 0.000, 0.000, 14:28:55.339, 1596054535339
99, 6176.37, 0.00, 1915.86, 0.00, 0.00, 0.00, 0.00, 0.00, 0.022, -0.042, 0.980, 14:28:55.339, 1596054535339
100, 6268.30, 0.00, 2000.41, 0.00, 0.00, 0.00, 0.00, 0.00, 0.000, 0.000, 0.000, 14:28:55.353, 1596054535353
101, 6446.82, 0.00, 2117.69, 0.00, 0.00, 0.00, 0.00, 0.00, 0.000, 0.000, 0.000, 14:28:55.353, 1596054535353
102, 6453.37, 0.00, 2120.55, 0.00, 0.00, 0.00, 0.00, 0.00, 0.000, 0.000, 0.000, 14:28:55.353, 1596054535353
103, 6317.97, 0.00, 2047.71, 0.00, 0.00, 0.00, 0.00, 0.00, 0.000, 0.000, 0.000, 14:28:55.353, 1596054535353
104, 6350.49, 0.00, 2089.73, 0.00, 0.00, 0.00, 0.00, 0.00, 0.000, 0.000, 0.000, 14:28:55.368, 1596054535368
105, 6512.25, 0.00, 2192.55, 0.00, 0.00, 0.00, 0.00, 0.00, 0.000, 0.000, 0.000, 14:28:55.368, 1596054535368
106, 6588.94, 0.00, 2248.99, 0.00, 0.00, 0.00, 0.00, 0.00, 0.000, 0.000, 0.000, 14:28:55.368, 1596054535368
107, 6524.41, 0.00, 2242.64, 0.00, 0.00, 0.00, 0.00, 0.00, 0.000, 0.000, 0.000, 14:28:55.368, 1596054535368
108, 6528.56, 0.00, 2273.15, 0.00, 0.00, 0.00, 0.00, 0.00, 0.000, 0.000, 0.000, 14:28:55.383, 1596054535383
109, 6693.88, 0.00, 2385.11, 0.00, 0.00, 0.00, 0.00, 0.00, 0.026, -0.040, 0.976, 14:28:55.383, 1596054535383
110, 6772.49, 0.00, 2428.25, 0.00, 0.00, 0.00, 0.00, 0.00, 0.000, 0.000, 0.000, 14:28:55.383, 1596054535383
111, 6672.26, 0.00, 2378.34, 0.00, 0.00, 0.00, 0.00, 0.00, 0.000, 0.000, 0.000, 14:28:55.399, 1596054535399
112, 6653.31, 0.00, 2400.93, 0.00, 0.00, 0.00, 0.00, 0.00, 0.000, 0.000, 0.000, 14:28:55.399, 1596054535399
113, 6773.94, 0.00, 2476.44, 0.00, 0.00, 0.00, 0.00, 0.00, 0.000, 0.000, 0.000, 14:28:55.399, 1596054535399
114, 6855.08, 0.00, 2509.09, 0.00, 0.00, 0.00, 0.00, 0.00, 0.000, 0.000, 0.000, 14:28:55.399, 1596054535399
115, 6804.00, 0.00, 2496.78, 0.00, 0.00, 0.00, 0.00, 0.00, 0.000, 0.000, 0.000, 14:28:55.414, 1596054535414
116, 6733.78, 0.00, 2480.08, 0.00, 0.00, 0.00, 0.00, 0.00, 0.000, 0.000, 0.000, 14:28:55.415, 1596054535415
117, 6864.80, 0.00, 2577.67, 0.00, 0.00, 0.00, 0.00, 0.00, 0.000, 0.000, 0.000, 14:28:55.415, 1596054535415
118, 6998.17, 0.00, 2654.47, 0.00, 0.00, 0.00, 0.00, 0.00, 0.000, 0.000, 0.000, 14:28:55.415, 1596054535415
119, 6953.36, 0.00, 2635.16, 0.00, 0.00, 0.00, 0.00, 0.00, 0.032, -0.044, 0.976, 14:28:55.429, 1596054535429
120, 6883.22, 0.00, 2625.53, 0.00, 0.00, 0.00, 0.00, 0.00, 0.000, 0.000, 0.000, 14:28:55.429, 1596054535429
121, 6973.61, 0.00, 2695.93, 0.00, 0.00, 0.00, 0.00, 0.00, 0.000, 0.000, 0.000, 14:28:55.429, 1596054535429
122, 7119.95, 0.00, 2781.65, 0.00, 0.00, 0.00, 0.00, 0.00, 0.000, 0.000, 0.000, 14:28:55.429, 1596054535429
123, 7119.28, 0.00, 2790.24, 0.00, 0.00, 0.00, 0.00, 0.00, 0.000, 0.000, 0.000, 14:28:55.444, 1596054535444
124, 7016.19, 0.00, 2750.36, 0.00, 0.00, 0.00, 0.00, 0.00, 0.000, 0.000, 0.000, 14:28:55.444, 1596054535444
125, 7057.14, 0.00, 2787.58, 0.00, 0.00, 0.00, 0.00, 0.00, 0.000, 0.000, 0.000, 14:28:55.444, 1596054535444
126, 7207.39, 0.00, 2876.92, 0.00, 0.00, 0.00, 0.00, 0.00, 0.000, 0.000, 0.000, 14:28:55.459, 1596054535459
127, 7229.27, 0.00, 2891.69, 0.00, 0.00, 0.00, 0.00, 0.00, 0.000, 0.000, 0.000, 14:28:55.459, 1596054535459
128, 7142.19, 0.00, 2866.25, 0.00, 0.00, 0.00, 0.00, 0.00, 0.000, 0.000, 0.000, 14:28:55.459, 1596054535459
129, 7171.53, 0.00, 2908.99, 0.00, 0.00, 0.00, 0.00, 0.00, 0.026, -0.046, 0.974, 14:28:55.459, 1596054535459
130, 7296.10, 0.00, 2975.53, 0.00, 0.00, 0.00, 0.00, 0.00, 0.000, 0.000, 0.000, 14:28:55.473, 1596054535473
131, 7348.23, 0.00, 3004.03, 0.00, 0.00, 0.00, 0.00, 0.00, 0.000, 0.000, 0.000, 14:28:55.474, 1596054535474
132, 7275.05, 0.00, 2986.95, 0.00, 0.00, 0.00, 0.00, 0.00, 0.000, 0.000, 0.000, 14:28:55.474, 1596054535474
133, 7257.81, 0.00, 2999.65, 0.00, 0.00, 0.00, 0.00, 0.00, 0.000, 0.000, 0.000, 14:28:55.474, 1596054535474
134, 7397.29, 0.00, 3087.71, 0.00, 0.00, 0.00, 0.00, 0.00, 0.000, 0.000, 0.000, 14:28:55.490, 1596054535490
135, 7498.03, 0.00, 3149.79, 0.00, 0.00, 0.00, 0.00, 0.00, 0.000, 0.000, 0.000, 14:28:55.490, 1596054535490
136, 7396.88, 0.00, 3096.34, 0.00, 0.00, 0.00, 0.00, 0.00, 0.000, 0.000, 0.000, 14:28:55.491, 1596054535491
137, 7332.49, 0.00, 3076.52, 0.00, 0.00, 0.00, 0.00, 0.00, 0.000, 0.000, 0.000, 14:28:55.491, 1596054535491
138, 7452.32, 0.00, 3153.85, 0.00, 0.00, 0.00, 0.00, 0.00, 0.000, 0.000, 0.000, 14:28:55.503, 1596054535503
139, 7556.28, 0.00, 3207.61, 0.00, 0.00, 0.00, 0.00, 0.00, 0.032, -0.050, 0.972, 14:28:55.503, 1596054535503
140, 7500.37, 0.00, 3187.58, 0.00, 0.00, 0.00, 0.00, 0.00, 0.000, 0.000, 0.000, 14:28:55.503, 1596054535503
141, 7435.06, 0.00, 3177.39, 0.00, 0.00, 0.00, 0.00, 0.00, 0.000, 0.000, 0.000, 14:28:55.519, 1596054535519
142, 7553.77, 0.00, 3265.39, 0.00, 0.00, 0.00, 0.00, 0.00, 0.000, 0.000, 0.000, 14:28:55.519, 1596054535519
143, 7653.59, 0.00, 3307.50, 0.00, 0.00, 0.00, 0.00, 0.00, 0.000, 0.000, 0.000, 14:28:55.519, 1596054535519
144, 7619.46, 0.00, 3294.85, 0.00, 0.00, 0.00, 0.00, 0.00, 0.000, 0.000, 0.000, 14:28:55.519, 1596054535519
145, 7531.04, 0.00, 3268.45, 0.00, 0.00, 0.00, 0.00, 0.00, 0.000, 0.000, 0.000, 14:28:55.535, 1596054535535
146, 7611.46, 0.00, 3332.47, 0.00, 0.00, 0.00, 0.00, 0.00, 0.000, 0.000, 0.000, 14:28:55.535, 1596054535535
147, 7748.10, 0.00, 3408.17, 0.00, 0.00, 0.00, 0.00, 0.00, 0.000, 0.000, 0.000, 14:28:55.535, 1596054535535
148, 7739.47, 0.00, 3405.02, 0.00, 0.00, 0.00, 0.00, 0.00, 0.000, 0.000, 0.000, 14:28:55.535, 1596054535535
149, 7648.74, 0.00, 3377.15, 0.00, 0.00, 0.00, 0.00, 0.00, 0.038, -0.050, 0.976, 14:28:55.548, 1596054535548
150, 7655.05, 0.00, 3384.12, 0.00, 0.00, 0.00, 0.00, 0.00, 0.000, 0.000, 0.000, 14:28:55.549, 1596054535549
151, 7785.31, 0.00, 3453.81, 0.00, 0.00, 0.00, 0.00, 0.00, 0.000, 0.000, 0.000, 14:28:55.549, 1596054535549
152, 7810.03, 0.00, 3467.05, 0.00, 0.00, 0.00, 0.00, 0.00, 0.000, 0.000, 0.000, 14:28:55.549, 1596054535549
153, 7723.94, 0.00, 3441.92, 0.00, 0.00, 0.00, 0.00, 0.00, 0.000, 0.000, 0.000, 14:28:55.564, 1596054535564
154, 7730.37, 0.00, 3466.02, 0.00, 0.00, 0.00, 0.00, 0.00, 0.000, 0.000, 0.000, 14:28:55.565, 1596054535565
155, 7872.91, 0.00, 3551.94, 0.00, 0.00, 0.00, 0.00, 0.00, 0.000, 0.000, 0.000, 14:28:55.566, 1596054535566
156, 7931.16, 0.00, 3582.49, 0.00, 0.00, 0.00, 0.00, 0.00, 0.000, 0.000, 0.000, 14:28:55.578, 1596054535578
157, 7858.00, 0.00, 3563.81, 0.00, 0.00, 0.00, 0.00, 0.00, 0.000, 0.000, 0.000, 14:28:55.579, 1596054535579
158, 7784.17, 0.00, 3523.84, 0.00, 0.00, 0.00, 0.00, 0.00, 0.000, 0.000, 0.000, 14:28:55.579, 1596054535579
159, 7907.22, 0.00, 3597.36, 0.00, 0.00, 0.00, 0.00, 0.00, 0.038, -0.048, 0.968, 14:28:55.579, 1596054535579
160, 7983.35, 0.00, 3631.17, 0.00, 0.00, 0.00, 0.00, 0.00, 0.000, 0.000, 0.000, 14:28:55.595, 1596054535595
161, 7917.43, 0.00, 3610.39, 0.00, 0.00, 0.00, 0.00, 0.00, 0.000, 0.000, 0.000, 14:28:55.595, 1596054535595
162, 7856.21, 0.00, 3596.78, 0.00, 0.00, 0.00, 0.00, 0.00, 0.000, 0.000, 0.000, 14:28:55.596, 1596054535596
163, 7947.65, 0.00, 3648.27, 0.00, 0.00, 0.00, 0.00, 0.00, 0.000, 0.000, 0.000, 14:28:55.596, 1596054535596
164, 8057.13, 0.00, 3705.58, 0.00, 0.00, 0.00, 0.00, 0.00, 0.000, 0.000, 0.000, 14:28:55.608, 1596054535608
165, 8000.65, 0.00, 3681.65, 0.00, 0.00, 0.00, 0.00, 0.00, 0.000, 0.000, 0.000, 14:28:55.609, 1596054535609
166, 7931.87, 0.00, 3669.91, 0.00, 0.00, 0.00, 0.00, 0.00, 0.000, 0.000, 0.000, 14:28:55.609, 1596054535609
167, 7998.59, 0.00, 3708.89, 0.00, 0.00, 0.00, 0.00, 0.00, 0.000, 0.000, 0.000, 14:28:55.609, 1596054535609
168, 8087.31, 0.00, 3739.09, 0.00, 0.00, 0.00, 0.00, 0.00, 0.000, 0.000, 0.000, 14:28:55.623, 1596054535623
169, 8044.15, 0.00, 3714.12, 0.00, 0.00, 0.00, 0.00, 0.00, 0.036, -0.046, 0.964, 14:28:55.623, 1596054535623
170, 7929.91, 0.00, 3662.29, 0.00, 0.00, 0.00, 0.00, 0.00, 0.000, 0.000, 0.000, 14:28:55.624, 1596054535624
171, 7989.94, 0.00, 3709.99, 0.00, 0.00, 0.00, 0.00, 0.00, 0.000, 0.000, 0.000, 14:28:55.638, 1596054535638
172, 8136.35, 0.00, 3794.88, 0.00, 0.00, 0.00, 0.00, 0.00, 0.000, 0.000, 0.000, 14:28:55.639, 1596054535639
173, 8122.96, 0.00, 3783.30, 0.00, 0.00, 0.00, 0.00, 0.00, 0.000, 0.000, 0.000, 14:28:55.639, 1596054535639
174, 8012.92, 0.00, 3736.12, 0.00, 0.00, 0.00, 0.00, 0.00, 0.000, 0.000, 0.000, 14:28:55.639, 1596054535639
175, 8040.24, 0.00, 3767.77, 0.00, 0.00, 0.00, 0.00, 0.00, 0.000, 0.000, 0.000, 14:28:55.654, 1596054535654
176, 8167.86, 0.00, 3835.65, 0.00, 0.00, 0.00, 0.00, 0.00, 0.000, 0.000, 0.000, 14:28:55.654, 1596054535654
177, 8195.29, 0.00, 3847.76, 0.00, 0.00, 0.00, 0.00, 0.00, 0.000, 0.000, 0.000, 14:28:55.655, 1596054535655
178, 8105.84, 0.00, 3817.92, 0.00, 0.00, 0.00, 0.00, 0.00, 0.000, 0.000, 0.000, 14:28:55.655, 1596054535655
179, 8084.67, 0.00, 3817.99, 0.00, 0.00, 0.00, 0.00, 0.00, 0.032, -0.046, 0.968, 14:28:55.670, 1596054535670
180, 8162.95, 0.00, 3840.90, 0.00, 0.00, 0.00, 0.00, 0.00, 0.000, 0.000, 0.000, 14:28:55.671, 1596054535671
181, 8209.08, 0.00, 3855.65, 0.00, 0.00, 0.00, 0.00, 0.00, 0.000, 0.000, 0.000, 14:28:55.672, 1596054535672
182, 8144.10, 0.00, 3843.29, 0.00, 0.00, 0.00, 0.00, 0.00, 0.000, 0.000, 0.000, 14:28:55.672, 1596054535672
183, 8094.75, 0.00, 3831.83, 0.00, 0.00, 0.00, 0.00, 0.00, 0.000, 0.000, 0.000, 14:28:55.684, 1596054535684
184, 8184.56, 0.00, 3874.03, 0.00, 0.00, 0.00, 0.00, 0.00, 0.000, 0.000, 0.000, 14:28:55.684, 1596054535684
185, 8279.67, 0.00, 3924.18, 0.00, 0.00, 0.00, 0.00, 0.00, 0.000, 0.000, 0.000, 14:28:55.684, 1596054535684
186, 8209.64, 0.00, 3896.83, 0.00, 0.00, 0.00, 0.00, 0.00, 0.000, 0.000, 0.000, 14:28:55.698, 1596054535698
187, 8138.85, 0.00, 3875.93, 0.00, 0.00, 0.00, 0.00, 0.00, 0.000, 0.000, 0.000, 14:28:55.698, 1596054535698
188, 8194.19, 0.00, 3893.70, 0.00, 0.00, 0.00, 0.00, 0.00, 0.032, -0.042, 0.968, 14:28:55.699, 1596054535699
189, 8301.35, 0.00, 3946.85, 0.00, 0.00, 0.00, 0.00, 0.00, 0.000, 0.000, 0.000, 14:28:55.699, 1596054535699
190, 8239.61, 0.00, 3914.24, 0.00, 0.00, 0.00, 0.00, 0.00, 0.000, 0.000, 0.000, 14:28:55.714, 1596054535714
191, 8130.65, 0.00, 3863.97, 0.00, 0.00, 0.00, 0.00, 0.00, 0.000, 0.000, 0.000, 14:28:55.714, 1596054535714
192, 8221.17, 0.00, 3931.00, 0.00, 0.00, 0.00, 0.00, 0.00, 0.000, 0.000, 0.000, 14:28:55.715, 1596054535715
193, 8337.27, 0.00, 3987.48, 0.00, 0.00, 0.00, 0.00, 0.00, 0.000, 0.000, 0.000, 14:28:55.715, 1596054535715
194, 8281.86, 0.00, 3945.93, 0.00, 0.00, 0.00, 0.00, 0.00, 0.000, 0.000, 0.000, 14:28:55.729, 1596054535729
195, 8168.78, 0.00, 3895.62, 0.00, 0.00, 0.00, 0.00, 0.00, 0.000, 0.000, 0.000, 14:28:55.729, 1596054535729
196, 8210.53, 0.00, 3929.19, 0.00, 0.00, 0.00, 0.00, 0.00, 0.000, 0.000, 0.000, 14:28:55.729, 1596054535729
197, 8339.08, 0.00, 3996.25, 0.00, 0.00, 0.00, 0.00, 0.00, 0.000, 0.000, 0.000, 14:28:55.729, 1596054535729
198, 8319.61, 0.00, 3974.77, 0.00, 0.00, 0.00, 0.00, 0.00, 0.026, -0.042, 0.970, 14:28:55.743, 1596054535743
199, 8201.15, 0.00, 3918.64, 0.00, 0.00, 0.00, 0.00, 0.00, 0.000, 0.000, 0.000, 14:28:55.743, 1596054535743
200, 8210.09, 0.00, 3936.23, 0.00, 0.00, 0.00, 0.00, 0.00, 0.000, 0.000, 0.000, 14:28:55.744, 1596054535744
201, 8317.37, 0.00, 3984.15, 0.00, 0.00, 0.00, 0.00, 0.00, 0.000, 0.000, 0.000, 14:28:55.759, 1596054535759
202, 8342.01, 0.00, 3989.21, 0.00, 0.00, 0.00, 0.00, 0.00, 0.000, 0.000, 0.000, 14:28:55.759, 1596054535759
203, 8226.83, 0.00, 3932.41, 0.00, 0.00, 0.00, 0.00, 0.00, 0.000, 0.000, 0.000, 14:28:55.759, 1596054535759
204, 8190.60, 0.00, 3922.24, 0.00, 0.00, 0.00, 0.00, 0.00, 0.000, 0.000, 0.000, 14:28:55.759, 1596054535759
205, 8312.30, 0.00, 3990.01, 0.00, 0.00, 0.00, 0.00, 0.00, 0.000, 0.000, 0.000, 14:28:55.773, 1596054535773
206, 8356.45, 0.00, 3999.31, 0.00, 0.00, 0.00, 0.00, 0.00, 0.000, 0.000, 0.000, 14:28:55.773, 1596054535773
207, 8209.55, 0.00, 3902.70, 0.00, 0.00, 0.00, 0.00, 0.00, 0.000, 0.000, 0.000, 14:28:55.773, 1596054535773
208, 8100.41, 0.00, 3834.87, 0.00, 0.00, 0.00, 0.00, 0.00, 0.026, -0.042, 0.972, 14:28:55.774, 1596054535774
209, 8137.80, 0.00, 3826.86, 0.00, 0.00, 0.00, 0.00, 0.00, 0.000, 0.000, 0.000, 14:28:55.789, 1596054535789
210, 8204.43, 0.00, 3845.82, 0.00, 0.00, 0.00, 0.00, 0.00, 0.000, 0.000, 0.000, 14:28:55.789, 1596054535789
211, 8110.06, 0.00, 3790.77, 0.00, 0.00, 0.00, 0.00, 0.00, 0.000, 0.000, 0.000, 14:28:55.790, 1596054535790
212, 8028.88, 0.00, 3761.82, 0.00, 0.00, 0.00, 0.00, 0.00, 0.000, 0.000, 0.000, 14:28:55.790, 1596054535790
213, 8122.71, 0.00, 3821.99, 0.00, 0.00, 0.00, 0.00, 0.00, 0.000, 0.000, 0.000, 14:28:55.803, 1596054535803
214, 8238.61, 0.00, 3881.96, 0.00, 0.00, 0.00, 0.00, 0.00, 0.000, 0.000, 0.000, 14:28:55.803, 1596054535803
215, 8171.82, 0.00, 3840.79, 0.00, 0.00, 0.00, 0.00, 0.00, 0.000, 0.000, 0.000, 14:28:55.803, 1596054535803
216, 8071.93, 0.00, 3800.94, 0.00, 0.00, 0.00, 0.00, 0.00, 0.000, 0.000, 0.000, 14:28:55.819, 1596054535819
217, 8133.31, 0.00, 3842.29, 0.00, 0.00, 0.00, 0.00, 0.00, 0.000, 0.000, 0.000, 14:28:55.819, 1596054535819
218, 8237.96, 0.00, 3886.92, 0.00, 0.00, 0.00, 0.00, 0.00, 0.028, -0.040, 0.972, 14:28:55.819, 1596054535819
219, 8214.09, 0.00, 3872.73, 0.00, 0.00, 0.00, 0.00, 0.00, 0.000, 0.000, 0.000, 14:28:55.819, 1596054535819
220, 8108.07, 0.00, 3829.52, 0.00, 0.00, 0.00, 0.00, 0.00, 0.000, 0.000, 0.000, 14:28:55.833, 1596054535833
221, 8142.25, 0.00, 3859.65, 0.00, 0.00, 0.00, 0.00, 0.00, 0.000, 0.000, 0.000, 14:28:55.834, 1596054535834
222, 8231.12, 0.00, 3887.37, 0.00, 0.00, 0.00, 0.00, 0.00, 0.000, 0.000, 0.000, 14:28:55.834, 1596054535834
223, 8222.98, 0.00, 3873.09, 0.00, 0.00, 0.00, 0.00, 0.00, 0.000, 0.000, 0.000, 14:28:55.834, 1596054535834
224, 8115.76, 0.00, 3827.27, 0.00, 0.00, 0.00, 0.00, 0.00, 0.000, 0.000, 0.000, 14:28:55.851, 1596054535851
225, 8096.45, 0.00, 3820.65, 0.00, 0.00, 0.00, 0.00, 0.00, 0.000, 0.000, 0.000, 14:28:55.852, 1596054535852
226, 8229.33, 0.00, 3896.00, 0.00, 0.00, 0.00, 0.00, 0.00, 0.000, 0.000, 0.000, 14:28:55.852, 1596054535852
227, 8255.42, 0.00, 3898.95, 0.00, 0.00, 0.00, 0.00, 0.00, 0.000, 0.000, 0.000, 14:28:55.853, 1596054535853
228, 8102.31, 0.00, 3802.23, 0.00, 0.00, 0.00, 0.00, 0.00, 0.028, -0.046, 0.968, 14:28:55.863, 1596054535863
229, 8046.45, 0.00, 3775.86, 0.00, 0.00, 0.00, 0.00, 0.00, 0.000, 0.000, 0.000, 14:28:55.863, 1596054535863
230, 8157.43, 0.00, 3834.51, 0.00, 0.00, 0.00, 0.00, 0.00, 0.000, 0.000, 0.000, 14:28:55.864, 1596054535864
231, 8228.82, 0.00, 3868.10, 0.00, 0.00, 0.00, 0.00, 0.00, 0.000, 0.000, 0.000, 14:28:55.864, 1596054535864
232, 8087.06, 0.00, 3774.40, 0.00, 0.00, 0.00, 0.00, 0.00, 0.000, 0.000, 0.000, 14:28:55.879, 1596054535879
233, 8013.12, 0.00, 3744.23, 0.00, 0.00, 0.00, 0.00, 0.00, 0.000, 0.000, 0.000, 14:28:55.880, 1596054535880
234, 8135.70, 0.00, 3823.58, 0.00, 0.00, 0.00, 0.00, 0.00, 0.000, 0.000, 0.000, 14:28:55.880, 1596054535880
235, 8224.95, 0.00, 3863.34, 0.00, 0.00, 0.00, 0.00, 0.00, 0.000, 0.000, 0.000, 14:28:55.894, 1596054535894
236, 8083.91, 0.00, 3759.25, 0.00, 0.00, 0.00, 0.00, 0.00, 0.000, 0.000, 0.000, 14:28:55.894, 1596054535894
237, 7966.00, 0.00, 3696.08, 0.00, 0.00, 0.00, 0.00, 0.00, 0.000, 0.000, 0.000, 14:28:55.894, 1596054535894
238, 8029.71, 0.00, 3727.76, 0.00, 0.00, 0.00, 0.00, 0.00, 0.034, -0.050, 0.972, 14:28:55.894, 1596054535894
239, 8122.38, 0.00, 3763.14, 0.00, 0.00, 0.00, 0.00, 0.00, 0.000, 0.000, 0.000, 14:28:55.908, 1596054535908
240, 8047.19, 0.00, 3710.37, 0.00, 0.00, 0.00, 0.00, 0.00, 0.000, 0.000, 0.000, 14:28:55.908, 1596054535908
241, 7928.79, 0.00, 3653.21, 0.00, 0.00, 0.00, 0.00, 0.00, 0.000, 0.000, 0.000, 14:28:55.909, 1596054535909
242, 7973.31, 0.00, 3681.22, 0.00, 0.00, 0.00, 0.00, 0.00, 0.000, 0.000, 0.000, 14:28:55.909, 1596054535909
243, 8068.62, 0.00, 3715.64, 0.00, 0.00, 0.00, 0.00, 0.00, 0.000, 0.000, 0.000, 14:28:55.924, 1596054535924
244, 8044.30, 0.00, 3697.63, 0.00, 0.00, 0.00, 0.00, 0.00, 0.000, 0.000, 0.000, 14:28:55.925, 1596054535925
245, 7913.32, 0.00, 3630.06, 0.00, 0.00, 0.00, 0.00, 0.00, 0.000, 0.000, 0.000, 14:28:55.925, 1596054535925
246, 7924.23, 0.00, 3640.14, 0.00, 0.00, 0.00, 0.00, 0.00, 0.000, 0.000, 0.000, 14:28:55.925, 1596054535925
247, 8041.73, 0.00, 3697.09, 0.00, 0.00, 0.00, 0.00, 0.00, 0.000, 0.000, 0.000, 14:28:55.938, 1596054535938
248, 8003.62, 0.00, 3648.56, 0.00, 0.00, 0.00, 0.00, 0.00, 0.028, -0.046, 0.974, 14:28:55.938, 1596054535938
249, 7849.46, 0.00, 3555.40, 0.00, 0.00, 0.00, 0.00, 0.00, 0.000, 0.000, 0.000, 14:28:55.939, 1596054535939
250, 7817.25, 0.00, 3539.78, 0.00, 0.00, 0.00, 0.00, 0.00, 0.000, 0.000, 0.000, 14:28:55.954, 1596054535954
251, 7922.06, 0.00, 3587.63, 0.00, 0.00, 0.00, 0.00, 0.00, 0.000, 0.000, 0.000, 14:28:55.954, 1596054535954
252, 7947.27, 0.00, 3585.98, 0.00, 0.00, 0.00, 0.00, 0.00, 0.000, 0.000, 0.000, 14:28:55.954, 1596054535954
253, 7793.52, 0.00, 3487.16, 0.00, 0.00, 0.00, 0.00, 0.00, 0.000, 0.000, 0.000, 14:28:55.955, 1596054535955
254, 7739.58, 0.00, 3466.46, 0.00, 0.00, 0.00, 0.00, 0.00, 0.000, 0.000, 0.000, 14:28:55.969, 1596054535969
255, 7828.01, 0.00, 3504.55, 0.00, 0.00, 0.00, 0.00, 0.00, 0.000, 0.000, 0.000, 14:28:55.969, 1596054535969
0, 7902.57, 0.00, 3537.99, 0.00, 0.00, 0.00, 0.00, 0.00, 0.000, 0.000, 0.000, 14:28:55.969, 1596054535969
1, 7778.41, 0.00, 3459.47, 0.00, 0.00, 0.00, 0.00, 0.00, 0.000, 0.000, 0.000, 14:28:55.969, 1596054535969
2, 7658.74, 0.00, 3386.83, 0.00, 0.00, 0.00, 0.00, 0.00, 0.028, -0.046, 0.974, 14:28:55.984, 1596054535984
3, 7735.20, 0.00, 3422.83, 0.00, 0.00, 0.00, 0.00, 0.00, 0.000, 0.000, 0.000, 14:28:55.984, 1596054535984
4, 7806.46, 0.00, 3442.24, 0.00, 0.00, 0.00, 0.00, 0.00, 0.000, 0.000, 0.000, 14:28:55.985, 1596054535985
5, 7713.16, 0.00, 3382.04, 0.00, 0.00, 0.00, 0.00, 0.00, 0.000, 0.000, 0.000, 14:28:55.985, 1596054535985
6, 7599.91, 0.00, 3325.43, 0.00, 0.00, 0.00, 0.00, 0.00, 0.000, 0.000, 0.000, 14:28:55.999, 1596054535999
7, 7667.16, 0.00, 3364.65, 0.00, 0.00, 0.00, 0.00, 0.00, 0.000, 0.000, 0.000, 14:28:55.999, 1596054535999
8, 7779.97, 0.00, 3419.15, 0.00, 0.00, 0.00, 0.00, 0.00, 0.000, 0.000, 0.000, 14:28:55.999, 1596054535999
9, 7702.63, 0.00, 3360.47, 0.00, 0.00, 0.00, 0.00, 0.00, 0.000, 0.000, 0.000, 14:28:56.013, 1596054536013
10, 7541.39, 0.00, 3261.32, 0.00, 0.00, 0.00, 0.00, 0.00, 0.000, 0.000, 0.000, 14:28:56.014, 1596054536014
11, 7565.15, 0.00, 3272.25, 0.00, 0.00, 0.00, 0.00, 0.00, 0.000, 0.000, 0.000, 14:28:56.014, 1596054536014
12, 7648.36, 0.00, 3294.04, 0.00, 0.00, 0.00, 0.00, 0.00, 0.032, -0.046, 0.978, 14:28:56.014, 1596054536014
13, 7600.26, 0.00, 3248.18, 0.00, 0.00, 0.00, 0.00, 0.00, 0.000, 0.000, 0.000, 14:28:56.029, 1596054536029
14, 7456.68, 0.00, 3167.87, 0.00, 0.00, 0.00, 0.00, 0.00, 0.000, 0.000, 0.000, 14:28:56.029, 1596054536029
15, 7460.52, 0.00, 3175.38, 0.00, 0.00, 0.00, 0.00, 0.00, 0.000, 0.000, 0.000, 14:28:56.029, 1596054536029
16, 7551.72, 0.00, 3206.22, 0.00, 0.00, 0.00, 0.00, 0.00, 0.000, 0.000, 0.000, 14:28:56.029, 1596054536029
17, 7523.71, 0.00, 3163.98, 0.00, 0.00, 0.00, 0.00, 0.00, 0.000, 0.000, 0.000, 14:28:56.044, 1596054536044
18, 7372.50, 0.00, 3072.43, 0.00, 0.00, 0.00, 0.00, 0.00, 0.000, 0.000, 0.000, 14:28:56.044, 1596054536044
19, 7335.15, 0.00, 3055.68, 0.00, 0.00, 0.00, 0.00, 0.00, 0.000, 0.000, 0.000, 14:28:56.044, 1596054536044
20, 7426.72, 0.00, 3091.83, 0.00, 0.00, 0.00, 0.00, 0.00, 0.000, 0.000, 0.000, 14:28:56.044, 1596054536044
21, 7446.57, 0.00, 3081.37, 0.00, 0.00, 0.00, 0.00, 0.00, 0.000, 0.000, 0.000, 14:28:56.059, 1596054536059
22, 7330.68, 0.00, 3018.33, 0.00, 0.00, 0.00, 0.00, 0.00, 0.036, -0.046, 0.980, 14:28:56.060, 1596054536060
23, 7230.74, 0.00, 2955.08, 0.00, 0.00, 0.00, 0.00, 0.00, 0.000, 0.000, 0.000, 14:28:56.060, 1596054536060
24, 7291.00, 0.00, 2967.02, 0.00, 0.00, 0.00, 0.00, 0.00, 0.000, 0.000, 0.000, 14:28:56.073, 1596054536073
25, 7341.83, 0.00, 2973.81, 0.00, 0.00, 0.00, 0.00, 0.00, 0.000, 0.000, 0.000, 14:28:56.074, 1596054536074
26, 7216.73, 0.00, 2892.07, 0.00, 0.00, 0.00, 0.00, 0.00, 0.000, 0.000, 0.000, 14:28:56.074, 1596054536074
27, 7104.75, 0.00, 2829.42, 0.00, 0.00, 0.00, 0.00, 0.00, 0.000, 0.000, 0.000, 14:28:56.074, 1596054536074
28, 7186.40, 0.00, 2873.05, 0.00, 0.00, 0.00, 0.00, 0.00, 0.000, 0.000, 0.000, 14:28:56.090, 1596054536090
29, 7247.84, 0.00, 2880.67, 0.00, 0.00, 0.00, 0.00, 0.00, 0.000, 0.000, 0.000, 14:28:56.090, 1596054536090
30, 7137.58, 0.00, 2800.87, 0.00, 0.00, 0.00, 0.00, 0.00, 0.000, 0.000, 0.000, 14:28:56.090, 1596054536090
31, 7010.15, 0.00, 2731.76, 0.00, 0.00, 0.00, 0.00, 0.00, 0.034, -0.046, 0.976, 14:28:56.091, 1596054536091
32, 7051.13, 0.00, 2748.06, 0.00, 0.00, 0.00, 0.00, 0.00, 0.000, 0.000, 0.000, 14:28:56.105, 1596054536105
33, 7144.47, 0.00, 2781.94, 0.00, 0.00, 0.00, 0.00, 0.00, 0.000, 0.000, 0.000, 14:28:56.106, 1596054536106
34, 7084.59, 0.00, 2736.37, 0.00, 0.00, 0.00, 0.00, 0.00, 0.000, 0.000, 0.000, 14:28:56.106, 1596054536106
35, 6929.76, 0.00, 2644.55, 0.00, 0.00, 0.00, 0.00, 0.00, 0.000, 0.000, 0.000, 14:28:56.106, 1596054536106
36, 6919.41, 0.00, 2624.99, 0.00, 0.00, 0.00, 0.00, 0.00, 0.000, 0.000, 0.000, 14:28:56.119, 1596054536119
37, 7007.45, 0.00, 2652.03, 0.00, 0.00, 0.00, 0.00, 0.00, 0.000, 0.000, 0.000, 14:28:56.120, 1596054536120
38, 6953.34, 0.00, 2596.20, 0.00, 0.00, 0.00, 0.00, 0.00, 0.000, 0.000, 0.000, 14:28:56.120, 1596054536120
39, 6810.78, 0.00, 2516.61, 0.00, 0.00, 0.00, 0.00, 0.00, 0.000, 0.000, 0.000, 14:28:56.134, 1596054536134
40, 6796.07, 0.00, 2509.14, 0.00, 0.00, 0.00, 0.00, 0.00, 0.000, 0.000, 0.000, 14:28:56.134, 1596054536134
41, 6870.01, 0.00, 2523.60, 0.00, 0.00, 0.00, 0.00, 0.00, 0.034, -0.042, 0.978, 14:28:56.134, 1596054536134
42, 6862.12, 0.00, 2497.27, 0.00, 0.00, 0.00, 0.00, 0.00, 0.000, 0.000, 0.000, 14:28:56.134, 1596054536134
43, 6724.77, 0.00, 2418.75, 0.00, 0.00, 0.00, 0.00, 0.00, 0.000, 0.000, 0.000, 14:28:56.148, 1596054536148
44, 6669.45, 0.00, 2388.35, 0.00, 0.00, 0.00, 0.00, 0.00, 0.000, 0.000, 0.000, 14:28:56.149, 1596054536149
45, 6770.25, 0.00, 2434.84, 0.00, 0.00, 0.00, 0.00, 0.00, 0.000, 0.000, 0.000, 14:28:56.149, 1596054536149
46, 6758.70, 0.00, 2389.38, 0.00, 0.00, 0.00, 0.00, 0.00, 0.000, 0.000, 0.000, 14:28:56.149, 1596054536149
47, 6621.28, 0.00, 2302.92, 0.00, 0.00, 0.00, 0.00, 0.00, 0.000, 0.000, 0.000, 14:28:56.166, 1596054536166
48, 6527.36, 0.00, 2248.72, 0.00, 0.00, 0.00, 0.00, 0.00, 0.000, 0.000, 0.000, 14:28:56.167, 1596054536167
49, 6566.92, 0.00, 2242.33, 0.00, 0.00, 0.00, 0.00, 0.00, 0.000, 0.000, 0.000, 14:28:56.167, 1596054536167
50, 6609.01, 0.00, 2238.08, 0.00, 0.00, 0.00, 0.00, 0.00, 0.000, 0.000, 0.000, 14:28:56.167, 1596054536167
51, 6500.22, 0.00, 2169.30, 0.00, 0.00, 0.00, 0.00, 0.00, 0.036, -0.046, 0.980, 14:28:56.179, 1596054536179
52, 6380.71, 0.00, 2102.23, 0.00, 0.00, 0.00, 0.00, 0.00, 0.000, 0.000, 0.000, 14:28:56.179, 1596054536179
53, 6445.77, 0.00, 2131.95, 0.00, 0.00, 0.00, 0.00, 0.00, 0.000, 0.000, 0.000, 14:28:56.179, 1596054536179
54, 6523.96, 0.00, 2154.24, 0.00, 0.00, 0.00, 0.00, 0.00, 0.000, 0.000, 0.000, 14:28:56.196, 1596054536196
55, 6455.74, 0.00, 2112.84, 0.00, 0.00, 0.00, 0.00, 0.00, 0.000, 0.000, 0.000, 14:28:56.197, 1596054536197
56, 6326.24, 0.00, 2042.86, 0.00, 0.00, 0.00, 0.00, 0.00, 0.000, 0.000, 0.000, 14:28:56.198, 1596054536198
57, 6304.94, 0.00, 2000.57, 0.00, 0.00, 0.00, 0.00, 0.00, 0.000, 0.000, 0.000, 14:28:56.198, 1596054536198
58, 6341.90, 0.00, 1977.64, 0.00, 0.00, 0.00, 0.00, 0.00, 0.000, 0.000, 0.000, 14:28:56.209, 1596054536209
59, 6271.52, 0.00, 1918.54, 0.00, 0.00, 0.00, 0.00, 0.00, 0.000, 0.000, 0.000, 14:28:56.210, 1596054536210
60, 6144.18, 0.00, 1854.03, 0.00, 0.00, 0.00, 0.00, 0.00, 0.000, 0.000, 0.000, 14:28:56.210, 1596054536210
61, 6134.57, 0.00, 1839.12, 0.00, 0.00, 0.00, 0.00, 0.00, 0.032, -0.044, 0.976, 14:28:56.210, 1596054536210
62, 6205.02, 0.00, 1848.27, 0.00, 0.00, 0.00, 0.00, 0.00, 0.000, 0.000, 0.000, 14:28:56.224, 1596054536224
63, 6181.44, 0.00, 1818.98, 0.00, 0.00, 0.00, 0.00, 0.00, 0.000, 0.000, 0.000, 14:28:56.225, 1596054536225
64, 6013.94, 0.00, 1713.51, 0.00, 0.00, 0.00, 0.00, 0.00, 0.000, 0.000, 0.000, 14:28:56.225, 1596054536225
65, 5990.22, 0.00, 1701.66, 0.00, 0.00, 0.00, 0.00, 0.00, 0.000, 0.000, 0.000, 14:28:56.225, 1596054536225
66, 6070.80, 0.00, 1723.68, 0.00, 0.00, 0.00, 0.00, 0.00, 0.000, 0.000, 0.000, 14:28:56.239, 1596054536239
67, 6048.00, 0.00, 1679.02, 0.00, 0.00, 0.00, 0.00, 0.00, 0.000, 0.000, 0.000, 14:28:56.239, 1596054536239
68, 5875.60, 0.00, 1563.68, 0.00, 0.00, 0.00, 0.00, 0.00, 0.000, 0.000, 0.000, 14:28:56.239, 1596054536239
69, 5806.83, 0.00, 1523.41, 0.00, 0.00, 0.00, 0.00, 0.00, 0.000, 0.000, 0.000, 14:28:56.254, 1596054536254
70, 5876.34, 0.00, 1540.55, 0.00, 0.00, 0.00, 0.00, 0.00, 0.000, 0.000, 0.000, 14:28:56.254, 1596054536254
71, 5916.86, 0.00, 1543.57, 0.00, 0.00, 0.00, 0.00, 0.00, 0.032, -0.046, 0.970, 14:28:56.254, 1596054536254
72, 5760.80, 0.00, 1435.99, 0.00, 0.00, 0.00, 0.00, 0.00, 0.000, 0.000, 0.000, 14:28:56.255, 1596054536255
73, 5660.67, 0.00, 1379.19, 0.00, 0.00, 0.00, 0.00, 0.00, 0.000, 0.000, 0.000, 14:28:56.270, 1596054536270
74, 5719.99, 0.00, 1395.29, 0.00, 0.00, 0.00, 0.00, 0.00, 0.000, 0.000, 0.000, 14:28:56.270, 1596054536270
75, 5776.09, 0.00, 1402.21, 0.00, 0.00, 0.00, 0.00, 0.00, 0.000, 0.000, 0.000, 14:28:56.270, 1596054536270
76, 5674.42, 0.00, 1337.75, 0.00, 0.00, 0.00, 0.00, 0.00, 0.000, 0.000, 0.000, 14:28:56.270, 1596054536270
77, 5509.70, 0.00, 1227.20, 0.00, 0.00, 0.00, 0.00, 0.00, 0.000, 0.000, 0.000, 14:28:56.285, 1596054536285
78, 5541.49, 0.00, 1226.69, 0.00, 0.00, 0.00, 0.00, 0.00, 0.000, 0.000, 0.000, 14:28:56.285, 1596054536285
79, 5601.64, 0.00, 1230.08, 0.00, 0.00, 0.00, 0.00, 0.00, 0.000, 0.000, 0.000, 14:28:56.285, 1596054536285
80, 5517.04, 0.00, 1168.66, 0.00, 0.00, 0.00, 0.00, 0.00, 0.000, 0.000, 0.000, 14:28:56.285, 1596054536285
81, 5384.38, 0.00, 1097.02, 0.00, 0.00, 0.00, 0.00, 0.00, 0.034, -0.042, 0.970, 14:28:56.298, 1596054536298
82, 5394.68, 0.00, 1089.94, 0.00, 0.00, 0.00, 0.00, 0.00, 0.000, 0.000, 0.000, 14:28:56.298, 1596054536298
83, 5468.00, 0.00, 1102.14, 0.00, 0.00, 0.00, 0.00, 0.00, 0.000, 0.000, 0.000, 14:28:56.298, 1596054536298
84, 5404.50, 0.00, 1045.97, 0.00, 0.00, 0.00, 0.00, 0.00, 0.000, 0.000, 0.000, 14:28:56.313, 1596054536313
85, 5254.58, 0.00, 958.93, 0.00, 0.00, 0.00, 0.00, 0.00, 0.000, 0.000, 0.000, 14:28:56.314, 1596054536314
86, 5260.77, 0.00, 963.99, 0.00, 0.00, 0.00, 0.00, 0.00, 0.000, 0.000, 0.000, 14:28:56.314, 1596054536314
87, 5305.90, 0.00, 948.54, 0.00, 0.00, 0.00, 0.00, 0.00, 0.000, 0.000, 0.000, 14:28:56.315, 1596054536315
88, 5271.55, 0.00, 904.78, 0.00, 0.00, 0.00, 0.00, 0.00, 0.000, 0.000, 0.000, 14:28:56.329, 1596054536329
89, 5094.92, 0.00, 789.40, 0.00, 0.00, 0.00, 0.00, 0.00, 0.000, 0.000, 0.000, 14:28:56.329, 1596054536329
90, 5066.04, 0.00, 775.74, 0.00, 0.00, 0.00, 0.00, 0.00, 0.000, 0.000, 0.000, 14:28:56.329, 1596054536329
91, 5146.06, 0.00, 798.52, 0.00, 0.00, 0.00, 0.00, 0.00, 0.032, -0.042, 0.970, 14:28:56.329, 1596054536329
92, 5124.90, 0.00, 751.71, 0.00, 0.00, 0.00, 0.00, 0.00, 0.000, 0.000, 0.000, 14:28:56.345, 1596054536345
93, 4997.85, 0.00, 679.85, 0.00, 0.00, 0.00, 0.00, 0.00, 0.000, 0.000, 0.000, 14:28:56.345, 1596054536345
94, 4908.62, 0.00, 622.74, 0.00, 0.00, 0.00, 0.00, 0.00, 0.000, 0.000, 0.000, 14:28:56.345, 1596054536345
95, 4962.53, 0.00, 625.80, 0.00, 0.00, 0.00, 0.00, 0.00, 0.000, 0.000, 0.000, 14:28:56.345, 1596054536345
96, 5010.79, 0.00, 633.81, 0.00, 0.00, 0.00, 0.00, 0.00, 0.000, 0.000, 0.000, 14:28:56.359, 1596054536359
97, 4876.59, 0.00, 546.08, 0.00, 0.00, 0.00, 0.00, 0.00, 0.000, 0.000, 0.000, 14:28:56.359, 1596054536359
98, 4775.85, 0.00, 491.25, 0.00, 0.00, 0.00, 0.00, 0.00, 0.000, 0.000, 0.000, 14:28:56.359, 1596054536359
99, 5241.31, 0.00, 915.59, 0.00, 0.00, 0.00, 0.00, 0.00, 0.000, 0.000, 0.000, 14:28:56.359, 1596054536359
100, 5756.83, 0.00, 1379.82, 0.00, 0.00, 0.00, 0.00, 0.00, 0.000, 0.000, 0.000, 14:28:56.374, 1596054536374
101, 5657.09, 0.00, 1314.44, 0.00, 0.00, 0.00, 0.00, 0.00, 0.032, -0.044, 0.972, 14:28:56.374, 1596054536374
102, 5518.78, 0.00, 1232.16, 0.00, 0.00, 0.00, 0.00, 0.00, 0.000, 0.000, 0.000, 14:28:56.375, 1596054536375
103, 5558.39, 0.00, 1242.58, 0.00, 0.00, 0.00, 0.00, 0.00, 0.000, 0.000, 0.000, 14:28:56.389, 1596054536389
104, 5636.10, 0.00, 1262.20, 0.00, 0.00, 0.00, 0.00, 0.00, 0.000, 0.000, 0.000, 14:28:56.389, 1596054536389
105, 5560.15, 0.00, 1206.28, 0.00, 0.00, 0.00, 0.00, 0.00, 0.000, 0.000, 0.000, 14:28:56.390, 1596054536390
106, 5430.40, 0.00, 1138.51, 0.00, 0.00, 0.00, 0.00, 0.00, 0.000, 0.000, 0.000, 14:28:56.390, 1596054536390
107, 5465.87, 0.00, 1159.50, 0.00, 0.00, 0.00, 0.00, 0.00, 0.000, 0.000, 0.000, 14:28:56.404, 1596054536404
108, 5569.47, 0.00, 1201.90, 0.00, 0.00, 0.00, 0.00, 0.00, 0.000, 0.000, 0.000, 14:28:56.404, 1596054536404
109, 5535.41, 0.00, 1171.59, 0.00, 0.00, 0.00, 0.00, 0.00, 0.000, 0.000, 0.000, 14:28:56.404, 1596054536404
110, 5409.35, 0.00, 1108.78, 0.00, 0.00, 0.00, 0.00, 0.00, 0.000, 0.000, 0.000, 14:28:56.404, 1596054536404
111, 5421.06, 0.00, 1122.62, 0.00, 0.00, 0.00, 0.00, 0.00, 0.028, -0.044, 0.974, 14:28:56.419, 1596054536419
112, 5535.16, 0.00, 1176.46, 0.00, 0.00, 0.00, 0.00, 0.00, 0.000, 0.000, 0.000, 14:28:56.419, 1596054536419
113, 5539.08, 0.00, 1167.39, 0.00, 0.00, 0.00, 0.00, 0.00, 0.000, 0.000, 0.000, 14:28:56.419, 1596054536419
114, 5417.19, 0.00, 1105.99, 0.00, 0.00, 0.00, 0.00, 0.00, 0.000, 0.000, 0.000, 14:28:56.419, 1596054536419
115, 5393.99, 0.00, 1102.34, 0.00, 0.00, 0.00, 0.00, 0.00, 0.000, 0.000, 0.000, 14:28:56.434, 1596054536434
116, 5505.52, 0.00, 1157.19, 0.00, 0.00, 0.00, 0.00, 0.00, 0.000, 0.000, 0.000, 14:28:56.434, 1596054536434
117, 5543.66, 0.00, 1165.40, 0.00, 0.00, 0.00, 0.00, 0.00, 0.000, 0.000, 0.000, 14:28:56.435, 1596054536435
118, 5430.04, 0.00, 1106.30, 0.00, 0.00, 0.00, 0.00, 0.00, 0.000, 0.000, 0.000, 14:28:56.449, 1596054536449
119, 5377.40, 0.00, 1089.63, 0.00, 0.00, 0.00, 0.00, 0.00, 0.000, 0.000, 0.000, 14:28:56.450, 1596054536450
120, 5483.91, 0.00, 1146.85, 0.00, 0.00, 0.00, 0.00, 0.00, 0.000, 0.000, 0.000, 14:28:56.450, 1596054536450
121, 5554.05, 0.00, 1173.67, 0.00, 0.00, 0.00, 0.00, 0.00, 0.030, -0.042, 0.974, 14:28:56.450, 1596054536450
122, 5454.07, 0.00, 1117.65, 0.00, 0.00, 0.00, 0.00, 0.00, 0.000, 0.000, 0.000, 14:28:56.464, 1596054536464
123, 5370.12, 0.00, 1082.96, 0.00, 0.00, 0.00, 0.00, 0.00, 0.000, 0.000, 0.000, 14:28:56.464, 1596054536464
124, 5462.34, 0.00, 1136.07, 0.00, 0.00, 0.00, 0.00, 0.00, 0.000, 0.000, 0.000, 14:28:56.464, 1596054536464
125, 5559.77, 0.00, 1179.75, 0.00, 0.00, 0.00, 0.00, 0.00, 0.000, 0.000, 0.000, 14:28:56.464, 1596054536464
126, 5483.24, 0.00, 1134.60, 0.00, 0.00, 0.00, 0.00, 0.00, 0.000, 0.000, 0.000, 14:28:56.479, 1596054536479
127, 5376.58, 0.00, 1085.98, 0.00, 0.00, 0.00, 0.00, 0.00, 0.000, 0.000, 0.000, 14:28:56.480, 1596054536480
128, 5444.39, 0.00, 1127.78, 0.00, 0.00, 0.00, 0.00, 0.00, 0.000, 0.000, 0.000, 14:28:56.481, 1596054536481
129, 5550.00, 0.00, 1174.27, 0.00, 0.00, 0.00, 0.00, 0.00, 0.000, 0.000, 0.000, 14:28:56.482, 1596054536482
130, 5496.34, 0.00, 1137.12, 0.00, 0.00, 0.00, 0.00, 0.00, 0.028, -0.044, 0.974, 14:28:56.494, 1596054536494
131, 5379.39, 0.00, 1082.14, 0.00, 0.00, 0.00, 0.00, 0.00, 0.000, 0.000, 0.000, 14:28:56.494, 1596054536494
132, 5420.70, 0.00, 1112.92, 0.00, 0.00, 0.00, 0.00, 0.00, 0.000, 0.000, 0.000, 14:28:56.494, 1596054536494
133, 5535.88, 0.00, 1167.01, 0.00, 0.00, 0.00, 0.00, 0.00, 0.000, 0.000, 0.000, 14:28:56.508, 1596054536508
134, 5517.60, 0.00, 1148.75, 0.00, 0.00, 0.00, 0.00, 0.00, 0.000, 0.000, 0.000, 14:28:56.508, 1596054536508
135, 5397.30, 0.00, 1091.26, 0.00, 0.00, 0.00, 0.00, 0.00, 0.000, 0.000, 0.000, 14:28:56.509, 1596054536509
136, 5405.97, 0.00, 1106.17, 0.00, 0.00, 0.00, 0.00, 0.00, 0.000, 0.000, 0.000, 14:28:56.509, 1596054536509
137, 5523.76, 0.00, 1164.21, 0.00, 0.00, 0.00, 0.00, 0.00, 0.000, 0.000, 0.000, 14:28:56.524, 1596054536524
138, 5534.27, 0.00, 1157.57, 0.00, 0.00, 0.00, 0.00, 0.00, 0.000, 0.000, 0.000, 14:28:56.524, 1596054536524
139, 5415.51, 0.00, 1097.60, 0.00, 0.00, 0.00, 0.00, 0.00, 0.000, 0.000, 0.000, 14:28:56.525, 1596054536525
140, 5386.01, 0.00, 1091.79, 0.00, 0.00, 0.00, 0.00, 0.00, 0.032, -0.046, 0.966, 14:28:56.525, 1596054536525
141, 5495.71, 0.00, 1147.00, 0.00, 0.00, 0.00, 0.00, 0.00, 0.000, 0.000, 0.000, 14:28:56.539, 1596054536539
142, 5542.90, 0.00, 1161.15, 0.00, 0.00, 0.00, 0.00, 0.00, 0.000, 0.000, 0.000, 14:28:56.539, 1596054536539
143, 5433.11, 0.00, 1103.01, 0.00, 0.00, 0.00, 0.00, 0.00, 0.000, 0.000, 0.000, 14:28:56.539, 1596054536539
144, 5370.27, 0.00, 1078.85, 0.00, 0.00, 0.00, 0.00, 0.00, 0.000, 0.000, 0.000, 14:28:56.539, 1596054536539
145, 5470.37, 0.00, 1132.21, 0.00, 0.00, 0.00, 0.00, 0.00, 0.000, 0.000, 0.000, 14:28:56.555, 1596054536555
146, 5547.35, 0.00, 1163.70, 0.00, 0.00, 0.00, 0.00, 0.00, 0.000, 0.000, 0.000, 14:28:56.556, 1596054536556
147, 5456.98, 0.00, 1114.55, 0.00, 0.00, 0.00, 0.00, 0.00, 0.000, 0.000, 0.000, 14:28:56.556, 1596054536556
148, 5373.78, 0.00, 1082.70, 0.00, 0.00, 0.00, 0.00, 0.00, 0.000, 0.000, 0.000, 14:28:56.569, 1596054536569
149, 5457.80, 0.00, 1130.55, 0.00, 0.00, 0.00, 0.00, 0.00, 0.000, 0.000, 0.000, 14:28:56.569, 1596054536569
150, 5546.76, 0.00, 1164.35, 0.00, 0.00, 0.00, 0.00, 0.00, 0.032, -0.050, 0.966, 14:28:56.572, 1596054536572
151, 5469.61, 0.00, 1115.26, 0.00, 0.00, 0.00, 0.00, 0.00, 0.000, 0.000, 0.000, 14:28:56.572, 1596054536572
152, 5365.25, 0.00, 1070.36, 0.00, 0.00, 0.00, 0.00, 0.00, 0.000, 0.000, 0.000, 14:28:56.583, 1596054536583
153, 5430.96, 0.00, 1113.47, 0.00, 0.00, 0.00, 0.00, 0.00, 0.000, 0.000, 0.000, 14:28:56.584, 1596054536584
154, 5545.15, 0.00, 1167.54, 0.00, 0.00, 0.00, 0.00, 0.00, 0.000, 0.000, 0.000, 14:28:56.584, 1596054536584
155, 5505.12, 0.00, 1140.32, 0.00, 0.00, 0.00, 0.00, 0.00, 0.000, 0.000, 0.000, 14:28:56.584, 1596054536584
156, 5390.19, 0.00, 1088.06, 0.00, 0.00, 0.00, 0.00, 0.00, 0.000, 0.000, 0.000, 14:28:56.599, 1596054536599
157, 5422.56, 0.00, 1113.85, 0.00, 0.00, 0.00, 0.00, 0.00, 0.000, 0.000, 0.000, 14:28:56.599, 1596054536599
158, 5538.63, 0.00, 1168.73, 0.00, 0.00, 0.00, 0.00, 0.00, 0.000, 0.000, 0.000, 14:28:56.600, 1596054536600
159, 5526.38, 0.00, 1152.48, 0.00, 0.00, 0.00, 0.00, 0.00, 0.000, 0.000, 0.000, 14:28:56.600, 1596054536600
160, 5401.14, 0.00, 1089.60, 0.00, 0.00, 0.00, 0.00, 0.00, 0.034, -0.048, 0.970, 14:28:56.613, 1596054536613
161, 5397.36, 0.00, 1096.15, 0.00, 0.00, 0.00, 0.00, 0.00, 0.000, 0.000, 0.000, 14:28:56.613, 1596054536613
162, 5512.70, 0.00, 1152.59, 0.00, 0.00, 0.00, 0.00, 0.00, 0.000, 0.000, 0.000, 14:28:56.614, 1596054536614
163, 5534.96, 0.00, 1153.95, 0.00, 0.00, 0.00, 0.00, 0.00, 0.000, 0.000, 0.000, 14:28:56.630, 1596054536630
164, 5418.69, 0.00, 1095.12, 0.00, 0.00, 0.00, 0.00, 0.00, 0.000, 0.000, 0.000, 14:28:56.630, 1596054536630
165, 5382.55, 0.00, 1086.34, 0.00, 0.00, 0.00, 0.00, 0.00, 0.000, 0.000, 0.000, 14:28:56.631, 1596054536631
166, 5494.89, 0.00, 1145.77, 0.00, 0.00, 0.00, 0.00, 0.00, 0.000, 0.000, 0.000, 14:28:56.631, 1596054536631
167, 5549.92, 0.00, 1164.44, 0.00, 0.00, 0.00, 0.00, 0.00, 0.000, 0.000, 0.000, 14:28:56.644, 1596054536644
168, 5442.49, 0.00, 1106.46, 0.00, 0.00, 0.00, 0.00, 0.00, 0.000, 0.000, 0.000, 14:28:56.644, 1596054536644
169, 5375.66, 0.00, 1081.58, 0.00, 0.00, 0.00, 0.00, 0.00, 0.000, 0.000, 0.000, 14:28:56.645, 1596054536645
170, 5473.18, 0.00, 1134.55, 0.00, 0.00, 0.00, 0.00, 0.00, 0.034, -0.044, 0.970, 14:28:56.645, 1596054536645
171, 5550.72, 0.00, 1163.56, 0.00, 0.00, 0.00, 0.00, 0.00, 0.000, 0.000, 0.000, 14:28:56.661, 1596054536661
172, 5464.38, 0.00, 1115.80, 0.00, 0.00, 0.00, 0.00, 0.00, 0.000, 0.000, 0.000, 14:28:56.661, 1596054536661
173, 5372.85, 0.00, 1077.87, 0.00, 0.00, 0.00, 0.00, 0.00, 0.000, 0.000, 0.000, 14:28:56.661, 1596054536661
174, 5453.11, 0.00, 1124.87, 0.00, 0.00, 0.00, 0.00, 0.00, 0.000, 0.000, 0.000, 14:28:56.662, 1596054536662
175, 5553.47, 0.00, 1168.93, 0.00, 0.00, 0.00, 0.00, 0.00, 0.000, 0.000, 0.000, 14:28:56.673, 1596054536673
176, 5491.35, 0.00, 1131.24, 0.00, 0.00, 0.00, 0.00, 0.00, 0.000, 0.000, 0.000, 14:28:56.674, 1596054536674
177, 5379.68, 0.00, 1080.17, 0.00, 0.00, 0.00, 0.00, 0.00, 0.000, 0.000, 0.000, 14:28:56.674, 1596054536674
178, 5429.46, 0.00, 1110.90, 0.00, 0.00, 0.00, 0.00, 0.00, 0.000, 0.000, 0.000, 14:28:56.689, 1596054536689
179, 5539.37, 0.00, 1160.37, 0.00, 0.00, 0.00, 0.00, 0.00, 0.000, 0.000, 0.000, 14:28:56.689, 1596054536689
180, 5506.15, 0.00, 1135.76, 0.00, 0.00, 0.00, 0.00, 0.00, 0.032, -0.046, 0.974, 14:28:56.689, 1596054536689
181, 5386.39, 0.00, 1078.96, 0.00, 0.00, 0.00, 0.00, 0.00, 0.000, 0.000, 0.000, 14:28:56.689, 1596054536689
182, 5352.77, 0.00, 1042.66, 0.00, 0.00, 0.00, 0.00, 0.00, 0.000, 0.000, 0.000, 14:28:56.704, 1596054536704
183, 5369.81, 0.00, 998.74, 0.00, 0.00, 0.00, 0.00, 0.00, 0.000, 0.000, 0.000, 14:28:56.704, 1596054536704
184, 5335.38, 0.00, 955.85, 0.00, 0.00, 0.00, 0.00, 0.00, 0.000, 0.000, 0.000, 14:28:56.704, 1596054536704
185, 5195.84, 0.00, 878.31, 0.00, 0.00, 0.00, 0.00, 0.00, 0.000, 0.000, 0.000, 14:28:56.704, 1596054536704
186, 5158.42, 0.00, 855.36, 0.00, 0.00, 0.00, 0.00, 0.00, 0.000, 0.000, 0.000, 14:28:56.719, 1596054536719
187, 5248.93, 0.00, 887.92, 0.00, 0.00, 0.00, 0.00, 0.00, 0.000, 0.000, 0.000, 14:28:56.719, 1596054536719
188, 5217.90, 0.00, 832.11, 0.00, 0.00, 0.00, 0.00, 0.00, 0.000, 0.000, 0.000, 14:28:56.719, 1596054536719
189, 5041.57, 0.00, 711.81, 0.00, 0.00, 0.00, 0.00, 0.00, 0.000, 0.000, 0.000, 14:28:56.719, 1596054536719
190, 4933.79, 0.00, 634.88, 0.00, 0.00, 0.00, 0.00, 0.00, 0.032, -0.050, 0.974, 14:28:56.734, 1596054536734
191, 4980.73, 0.00, 630.68, 0.00, 0.00, 0.00, 0.00, 0.00, 0.000, 0.000, 0.000, 14:28:56.735, 1596054536735
192, 4982.90, 0.00, 593.42, 0.00, 0.00, 0.00, 0.00, 0.00, 0.000, 0.000, 0.000, 14:28:56.736, 1596054536736
193, 4824.22, 0.00, 481.84, 0.00, 0.00, 0.00, 0.00, 0.00, 0.000, 0.000, 0.000, 14:28:56.749, 1596054536749
194, 4676.92, 0.00, 379.93, 0.00, 0.00, 0.00, 0.00, 0.00, 0.000, 0.000, 0.000, 14:28:56.750, 1596054536750
195, 4689.84, 0.00, 350.94, 0.00, 0.00, 0.00, 0.00, 0.00, 0.000, 0.000, 0.000, 14:28:56.750, 1596054536750
196, 4687.56, 0.00, 297.68, 0.00, 0.00, 0.00, 0.00, 0.00, 0.000, 0.000, 0.000, 14:28:56.750, 1596054536750
197, 4561.61, 0.00, 207.18, 0.00, 0.00, 0.00, 0.00, 0.00, 0.000, 0.000, 0.000, 14:28:56.765, 1596054536765
198, 4386.60, 0.00, 87.71, 0.00, 0.00, 0.00, 0.00, 0.00, 0.000, 0.000, 0.000, 14:28:56.766, 1596054536766
199, 4378.59, 0.00, 49.51, 0.00, 0.00, 0.00, 0.00, 0.00, 0.000, 0.000, 0.000, 14:28:56.766, 1596054536766
200, 4419.90, 0.00, 32.77, 0.00, 0.00, 0.00, 0.00, 0.00, 0.036, -0.052, 0.976, 14:28:56.766, 1596054536766
201, 4292.03, 0.00, -73.81, 0.00, 0.00, 0.00, 0.00, 0.00, 0.000, 0.000, 0.000, 14:28:56.779, 1596054536779
202, 4123.96, 0.00, -180.11, 0.00, 0.00, 0.00, 0.00, 0.00, 0.000, 0.000, 0.000, 14:28:56.779, 1596054536779
203, 4118.17, 0.00, -201.14, 0.00, 0.00, 0.00, 0.00, 0.00, 0.000, 0.000, 0.000, 14:28:56.779, 1596054536779
204, 4147.77, 0.00, -232.95, 0.00, 0.00, 0.00, 0.00, 0.00, 0.000, 0.000, 0.000, 14:28:56.779, 1596054536779
205, 4045.40, 0.00, -330.63, 0.00, 0.00, 0.00, 0.00, 0.00, 0.000, 0.000, 0.000, 14:28:56.793, 1596054536793
206, 3866.11, 0.00, -446.50, 0.00, 0.00, 0.00, 0.00, 0.00, 0.000, 0.000, 0.000, 14:28:56.794, 1596054536794
207, 3816.63, 0.00, -494.44, 0.00, 0.00, 0.00, 0.00, 0.00, 0.000, 0.000, 0.000, 14:28:56.794, 1596054536794
208, 3883.26, 0.00, -488.41, 0.00, 0.00, 0.00, 0.00, 0.00, 0.000, 0.000, 0.000, 14:28:56.808, 1596054536808
209, 3840.54, 0.00, -543.46, 0.00, 0.00, 0.00, 0.00, 0.00, 0.000, 0.000, 0.000, 14:28:56.808, 1596054536808
210, 3643.31, 0.00, -679.92, 0.00, 0.00, 0.00, 0.00, 0.00, 0.034, -0.050, 0.980, 14:28:56.808, 1596054536808
211, 3560.86, 0.00, -744.07, 0.00, 0.00, 0.00, 0.00, 0.00, 0.000, 0.000, 0.000, 14:28:56.809, 1596054536809
212, 3618.21, 0.00, -743.40, 0.00, 0.00, 0.00, 0.00, 0.00, 0.000, 0.000, 0.000, 14:28:56.824, 1596054536824
213, 3589.71, 0.00, -799.95, 0.00, 0.00, 0.00, 0.00, 0.00, 0.000, 0.000, 0.000, 14:28:56.824, 1596054536824
214, 3427.75, 0.00, -907.75, 0.00, 0.00, 0.00, 0.00, 0.00, 0.000, 0.000, 0.000, 14:28:56.825, 1596054536825
215, 3337.47, 0.00, -963.65, 0.00, 0.00, 0.00, 0.00, 0.00, 0.000, 0.000, 0.000, 14:28:56.825, 1596054536825
216, 3393.15, 0.00, -957.30, 0.00, 0.00, 0.00, 0.00, 0.00, 0.000, 0.000, 0.000, 14:28:56.840, 1596054536840
217, 3393.98, 0.00, -998.81, 0.00, 0.00, 0.00, 0.00, 0.00, 0.000, 0.000, 0.000, 14:28:56.840, 1596054536840
218, 3232.20, 0.00, -1116.20, 0.00, 0.00, 0.00, 0.00, 0.00, 0.000, 0.000, 0.000, 14:28:56.841, 1596054536841
219, 3109.17, 0.00, -1191.24, 0.00, 0.00, 0.00, 0.00, 0.00, 0.000, 0.000, 0.000, 14:28:56.841, 1596054536841
220, 3158.86, 0.00, -1180.73, 0.00, 0.00, 0.00, 0.00, 0.00, 0.034, -0.044, 0.976, 14:28:56.855, 1596054536855
221, 3193.71, 0.00, -1199.08, 0.00, 0.00, 0.00, 0.00, 0.00, 0.000, 0.000, 0.000, 14:28:56.856, 1596054536856
222, 3080.92, 0.00, -1279.44, 0.00, 0.00, 0.00, 0.00, 0.00, 0.000, 0.000, 0.000, 14:28:56.856, 1596054536856
223, 2942.00, 0.00, -1360.64, 0.00, 0.00, 0.00, 0.00, 0.00, 0.000, 0.000, 0.000, 14:28:56.856, 1596054536856
224, 2981.23, 0.00, -1348.30, 0.00, 0.00, 0.00, 0.00, 0.00, 0.000, 0.000, 0.000, 14:28:56.870, 1596054536870
225, 3041.18, 0.00, -1347.34, 0.00, 0.00, 0.00, 0.00, 0.00, 0.000, 0.000, 0.000, 14:28:56.870, 1596054536870
226, 2933.31, 0.00, -1437.57, 0.00, 0.00, 0.00, 0.00, 0.00, 0.000, 0.000, 0.000, 14:28:56.871, 1596054536871
227, 2781.94, 0.00, -1526.76, 0.00, 0.00, 0.00, 0.00, 0.00, 0.000, 0.000, 0.000, 14:28:56.884, 1596054536884
228, 2770.81, 0.00, -1549.33, 0.00, 0.00, 0.00, 0.00, 0.00, 0.000, 0.000, 0.000, 14:28:56.884, 1596054536884
229, 2856.91, 0.00, -1524.79, 0.00, 0.00, 0.00, 0.00, 0.00, 0.034, -0.042, 0.974, 14:28:56.884, 1596054536884
230, 2819.72, 0.00, -1561.29, 0.00, 0.00, 0.00, 0.00, 0.00, 0.000, 0.000, 0.000, 14:28:56.884, 1596054536884
231, 2671.84, 0.00, -1646.52, 0.00, 0.00, 0.00, 0.00, 0.00, 0.000, 0.000, 0.000, 14:28:56.899, 1596054536899
232, 2644.10, 0.00, -1668.76, 0.00, 0.00, 0.00, 0.00, 0.00, 0.000, 0.000, 0.000, 14:28:56.899, 1596054536899
233, 2730.56, 0.00, -1642.05, 0.00, 0.00, 0.00, 0.00, 0.00, 0.000, 0.000, 0.000, 14:28:56.899, 1596054536899
234, 2732.43, 0.00, -1656.42, 0.00, 0.00, 0.00, 0.00, 0.00, 0.000, 0.000, 0.000, 14:28:56.900, 1596054536900
235, 2603.75, 0.00, -1725.58, 0.00, 0.00, 0.00, 0.00, 0.00, 0.000, 0.000, 0.000, 14:28:56.914, 1596054536914
236, 2546.67, 0.00, -1760.29, 0.00, 0.00, 0.00, 0.00, 0.00, 0.000, 0.000, 0.000, 14:28:56.915, 1596054536915
237, 2645.73, 0.00, -1716.55, 0.00, 0.00, 0.00, 0.00, 0.00, 0.000, 0.000, 0.000, 14:28:56.915, 1596054536915
238, 2678.57, 0.00, -1715.74, 0.00, 0.00, 0.00, 0.00, 0.00, 0.000, 0.000, 0.000, 14:28:56.915, 1596054536915
239, 2552.41, 0.00, -1789.70, 0.00, 0.00, 0.00, 0.00, 0.00, 0.032, -0.046, 0.974, 14:28:56.929, 1596054536929
240, 2488.60, 0.00, -1815.54, 0.00, 0.00, 0.00, 0.00, 0.00, 0.000, 0.000, 0.000, 14:28:56.929, 1596054536929
241, 2578.34, 0.00, -1772.87, 0.00, 0.00, 0.00, 0.00, 0.00, 0.000, 0.000, 0.000, 14:28:56.929, 1596054536929
242, 2652.10, 0.00, -1744.58, 0.00, 0.00, 0.00, 0.00, 0.00, 0.000, 0.000, 0.000, 14:28:56.944, 1596054536944
243, 2553.44, 0.00, -1801.22, 0.00, 0.00, 0.00, 0.00, 0.00, 0.000, 0.000, 0.000, 14:28:56.944, 1596054536944
244, 2460.39, 0.00, -1843.35, 0.00, 0.00, 0.00, 0.00, 0.00, 0.000, 0.000, 0.000, 14:28:56.944, 1596054536944
245, 2533.30, 0.00, -1807.09, 0.00, 0.00, 0.00, 0.00, 0.00, 0.000, 0.000, 0.000, 14:28:56.945, 1596054536945
246, 2610.28, 0.00, -1784.72, 0.00, 0.00, 0.00, 0.00, 0.00, 0.000, 0.000, 0.000, 14:28:56.960, 1596054536960
247, 2523.29, 0.00, -1842.81, 0.00, 0.00, 0.00, 0.00, 0.00, 0.000, 0.000, 0.000, 14:28:56.960, 1596054536960
248, 2407.86, 0.00, -1899.27, 0.00, 0.00, 0.00, 0.00, 0.00, 0.000, 0.000, 0.000, 14:28:56.960, 1596054536960
249, 2474.99, 0.00, -1855.82, 0.00, 0.00, 0.00, 0.00, 0.00, 0.032, -0.048, 0.976, 14:28:56.960, 1596054536960
250, 2594.19, 0.00, -1796.03, 0.00, 0.00, 0.00, 0.00, 0.00, 0.000, 0.000, 0.000, 14:28:56.974, 1596054536974
251, 2566.11, 0.00, -1811.01, 0.00, 0.00, 0.00, 0.00, 0.00, 0.000, 0.000, 0.000, 14:28:56.974, 1596054536974
252, 2462.31, 0.00, -1851.82, 0.00, 0.00, 0.00, 0.00, 0.00, 0.000, 0.000, 0.000, 14:28:56.974, 1596054536974
253, 2504.36, 0.00, -1817.51, 0.00, 0.00, 0.00, 0.00, 0.00, 0.000, 0.000, 0.000, 14:28:56.974, 1596054536974
254, 2655.25, 0.00, -1727.66, 0.00, 0.00, 0.00, 0.00, 0.00, 0.000, 0.000, 0.000, 14:28:56.989, 1596054536989
255, 2663.01, 0.00, -1722.96, 0.00, 0.00, 0.00, 0.00, 0.00, 0.000, 0.000, 0.000, 14:28:56.989, 1596054536989
0, 2553.82, 0.00, -1770.15, 0.00, 0.00, 0.00, 0.00, 0.00, 0.000, 0.000, 0.000, 14:28:56.990, 1596054536990
1, 2588.69, 0.00, -1726.11, 0.00, 0.00, 0.00, 0.00, 0.00, 0.000, 0.000, 0.000, 14:28:57.004, 1596054537004
2, 2745.64, 0.00, -1628.21, 0.00, 0.00, 0.00, 0.00, 0.00, 0.000, 0.000, 0.000, 14:28:57.004, 1596054537004
3, 2793.41, 0.00, -1600.54, 0.00, 0.00, 0.00, 0.00, 0.00, 0.028, -0.040, 0.974, 14:28:57.004, 1596054537004
4, 2685.61, 0.00, -1649.94, 0.00, 0.00, 0.00, 0.00, 0.00, 0.000, 0.000, 0.000, 14:28:57.004, 1596054537004
5, 2683.68, 0.00, -1625.62, 0.00, 0.00, 0.00, 0.00, 0.00, 0.000, 0.000, 0.000, 14:28:57.019, 1596054537019
6, 2843.63, 0.00, -1519.52, 0.00, 0.00, 0.00, 0.00, 0.00, 0.000, 0.000, 0.000, 14:28:57.019, 1596054537019
7, 2922.78, 0.00, -1475.53, 0.00, 0.00, 0.00, 0.00, 0.00, 0.000, 0.000, 0.000, 14:28:57.019, 1596054537019
8, 2861.54, 0.00, -1486.95, 0.00, 0.00, 0.00, 0.00, 0.00, 0.000, 0.000, 0.000, 14:28:57.019, 1596054537019
9, 2839.01, 0.00, -1468.49, 0.00, 0.00, 0.00, 0.00, 0.00, 0.000, 0.000, 0.000, 14:28:57.034, 1596054537034
10, 2953.96, 0.00, -1398.62, 0.00, 0.00, 0.00, 0.00, 0.00, 0.000, 0.000, 0.000, 14:28:57.035, 1596054537035
11, 3064.42, 0.00, -1335.78, 0.00, 0.00, 0.00, 0.00, 0.00, 0.000, 0.000, 0.000, 14:28:57.035, 1596054537035
12, 3021.02, 0.00, -1340.10, 0.00, 0.00, 0.00, 0.00, 0.00, 0.000, 0.000, 0.000, 14:28:57.035, 1596054537035
13, 2988.34, 0.00, -1319.49, 0.00, 0.00, 0.00, 0.00, 0.00, 0.026, -0.040, 0.978, 14:28:57.049, 1596054537049
14, 3115.63, 0.00, -1225.99, 0.00, 0.00, 0.00, 0.00, 0.00, 0.000, 0.000, 0.000, 14:28:57.049, 1596054537049
15, 3251.93, 0.00, -1146.13, 0.00, 0.00, 0.00, 0.00, 0.00, 0.000, 0.000, 0.000, 14:28:57.050, 1596054537050
16, 3246.61, 0.00, -1125.90, 0.00, 0.00, 0.00, 0.00, 0.00, 0.000, 0.000, 0.000, 14:28:57.065, 1596054537065
17, 3197.37, 0.00, -1114.59, 0.00, 0.00, 0.00, 0.00, 0.00, 0.000, 0.000, 0.000, 14:28:57.065, 1596054537065
18, 3300.91, 0.00, -1031.15, 0.00, 0.00, 0.00, 0.00, 0.00, 0.000, 0.000, 0.000, 14:28:57.065, 1596054537065
19, 3448.07, 0.00, -944.50, 0.00, 0.00, 0.00, 0.00, 0.00, 0.000, 0.000, 0.000, 14:28:57.065, 1596054537065
20, 3467.49, 0.00, -915.35, 0.00, 0.00, 0.00, 0.00, 0.00, 0.000, 0.000, 0.000, 14:28:57.079, 1596054537079
21, 3421.63, 0.00, -898.12, 0.00, 0.00, 0.00, 0.00, 0.00, 0.000, 0.000, 0.000, 14:28:57.079, 1596054537079
22, 3503.17, 0.00, -820.38, 0.00, 0.00, 0.00, 0.00, 0.00, 0.000, 0.000, 0.000, 14:28:57.079, 1596054537079
23, 3684.01, 0.00, -700.66, 0.00, 0.00, 0.00, 0.00, 0.00, 0.028, -0.050, 0.978, 14:28:57.079, 1596054537079
24, 3755.34, 0.00, -636.71, 0.00, 0.00, 0.00, 0.00, 0.00, 0.000, 0.000, 0.000, 14:28:57.095, 1596054537095
25, 3681.53, 0.00, -648.87, 0.00, 0.00, 0.00, 0.00, 0.00, 0.000, 0.000, 0.000, 14:28:57.095, 1596054537095
26, 3727.24, 0.00, -589.66, 0.00, 0.00, 0.00, 0.00, 0.00, 0.000, 0.000, 0.000, 14:28:57.095, 1596054537095
27, 3912.34, 0.00, -462.70, 0.00, 0.00, 0.00, 0.00, 0.00, 0.000, 0.000, 0.000, 14:28:57.095, 1596054537095
28, 4004.74, 0.00, -394.04, 0.00, 0.00, 0.00, 0.00, 0.00, 0.000, 0.000, 0.000, 14:28:57.108, 1596054537108
29, 3962.72, 0.00, -379.24, 0.00, 0.00, 0.00, 0.00, 0.00, 0.000, 0.000, 0.000, 14:28:57.108, 1596054537108
30, 4005.07, 0.00, -306.76, 0.00, 0.00, 0.00, 0.00, 0.00, 0.000, 0.000, 0.000, 14:28:57.109, 1596054537109
31, 4171.46, 0.00, -192.43, 0.00, 0.00, 0.00, 0.00, 0.00, 0.000, 0.000, 0.000, 14:28:57.124, 1596054537124
32, 4286.71, 0.00, -115.76, 0.00, 0.00, 0.00, 0.00, 0.00, 0.000, 0.000, 0.000, 14:28:57.124, 1596054537124
33, 4257.78, 0.00, -96.83, 0.00, 0.00, 0.00, 0.00, 0.00, 0.028, -0.044, 0.978, 14:28:57.124, 1596054537124
34, 4255.17, 0.00, -55.19, 0.00, 0.00, 0.00, 0.00, 0.00, 0.000, 0.000, 0.000, 14:28:57.124, 1596054537124
35, 4432.95, 0.00, 79.84, 0.00, 0.00, 0.00, 0.00, 0.00, 0.000, 0.000, 0.000, 14:28:57.139, 1596054537139
36, 4604.28, 0.00, 200.96, 0.00, 0.00, 0.00, 0.00, 0.00, 0.000, 0.000, 0.000, 14:28:57.139, 1596054537139
37, 4567.36, 0.00, 200.05, 0.00, 0.00, 0.00, 0.00, 0.00, 0.000, 0.000, 0.000, 14:28:57.139, 1596054537139
38, 4561.03, 0.00, 248.84, 0.00, 0.00, 0.00, 0.00, 0.00, 0.000, 0.000, 0.000, 14:28:57.139, 1596054537139
39, 4722.39, 0.00, 379.49, 0.00, 0.00, 0.00, 0.00, 0.00, 0.000, 0.000, 0.000, 14:28:57.155, 1596054537155
40, 4892.71, 0.00, 492.05, 0.00, 0.00, 0.00, 0.00, 0.00, 0.000, 0.000, 0.000, 14:28:57.155, 1596054537155
41, 4899.26, 0.00, 520.51, 0.00, 0.00, 0.00, 0.00, 0.00, 0.000, 0.000, 0.000, 14:28:57.155, 1596054537155
42, 4863.67, 0.00, 546.14, 0.00, 0.00, 0.00, 0.00, 0.00, 0.000, 0.000, 0.000, 14:28:57.156, 1596054537156
43, 4992.11, 0.00, 658.10, 0.00, 0.00, 0.00, 0.00, 0.00, 0.034, -0.044, 0.982, 14:28:57.169, 1596054537169
44, 5184.49, 0.00, 789.55, 0.00, 0.00, 0.00, 0.00, 0.00, 0.000, 0.000, 0.000, 14:28:57.169, 1596054537169
45, 5232.23, 0.00, 843.17, 0.00, 0.00, 0.00, 0.00, 0.00, 0.000, 0.000, 0.000, 14:28:57.170, 1596054537170
46, 5201.68, 0.00, 876.01, 0.00, 0.00, 0.00, 0.00, 0.00, 0.000, 0.000, 0.000, 14:28:57.185, 1596054537185
47, 5284.09, 0.00, 958.80, 0.00, 0.00, 0.00, 0.00, 0.00, 0.000, 0.000, 0.000, 14:28:57.185, 1596054537185
48, 5477.21, 0.00, 1091.35, 0.00, 0.00, 0.00, 0.00, 0.00, 0.000, 0.000, 0.000, 14:28:57.185, 1596054537185
49, 5565.20, 0.00, 1168.06, 0.00, 0.00, 0.00, 0.00, 0.00, 0.000, 0.000, 0.000, 14:28:57.185, 1596054537185
50, 5525.44, 0.00, 1189.43, 0.00, 0.00, 0.00, 0.00, 0.00, 0.000, 0.000, 0.000, 14:28:57.199, 1596054537199
51, 5607.63, 0.00, 1288.58, 0.00, 0.00, 0.00, 0.00, 0.00, 0.000, 0.000, 0.000, 14:28:57.199, 1596054537199
52, 5788.01, 0.00, 1412.14, 0.00, 0.00, 0.00, 0.00, 0.00, 0.000, 0.000, 0.000, 14:28:57.199, 1596054537199
53, 5897.42, 0.00, 1494.01, 0.00, 0.00, 0.00, 0.00, 0.00, 0.038, -0.044, 0.984, 14:28:57.201, 1596054537201
54, 5864.29, 0.00, 1515.36, 0.00, 0.00, 0.00, 0.00, 0.00, 0.000, 0.000, 0.000, 14:28:57.214, 1596054537214
55, 5891.54, 0.00, 1576.04, 0.00, 0.00, 0.00, 0.00, 0.00, 0.000, 0.000, 0.000, 14:28:57.214, 1596054537214
56, 6089.24, 0.00, 1723.74, 0.00, 0.00, 0.00, 0.00, 0.00, 0.000, 0.000, 0.000, 14:28:57.214, 1596054537214
57, 6219.91, 0.00, 1813.24, 0.00, 0.00, 0.00, 0.00, 0.00, 0.000, 0.000, 0.000, 14:28:57.214, 1596054537214
58, 6182.58, 0.00, 1821.47, 0.00, 0.00, 0.00, 0.00, 0.00, 0.000, 0.000, 0.000, 14:28:57.229, 1596054537229
59, 6179.83, 0.00, 1865.72, 0.00, 0.00, 0.00, 0.00, 0.00, 0.000, 0.000, 0.000, 14:28:57.229, 1596054537229
60, 6339.13, 0.00, 1985.04, 0.00, 0.00, 0.00, 0.00, 0.00, 0.000, 0.000, 0.000, 14:28:57.229, 1596054537229
61, 6529.35, 0.00, 2123.06, 0.00, 0.00, 0.00, 0.00, 0.00, 0.000, 0.000, 0.000, 14:28:57.243, 1596054537243
62, 6490.45, 0.00, 2116.84, 0.00, 0.00, 0.00, 0.00, 0.00, 0.000, 0.000, 0.000, 14:28:57.244, 1596054537244
63, 6442.53, 0.00, 2126.10, 0.00, 0.00, 0.00, 0.00, 0.00, 0.030, -0.046, 0.978, 14:28:57.244, 1596054537244
64, 6601.50, 0.00, 2256.99, 0.00, 0.00, 0.00, 0.00, 0.00, 0.000, 0.000, 0.000, 14:28:57.244, 1596054537244
65, 6800.45, 0.00, 2397.40, 0.00, 0.00, 0.00, 0.00, 0.00, 0.000, 0.000, 0.000, 14:28:57.259, 1596054537259
66, 6818.35, 0.00, 2433.64, 0.00, 0.00, 0.00, 0.00, 0.00, 0.000, 0.000, 0.000, 14:28:57.260, 1596054537260
67, 6761.04, 0.00, 2438.20, 0.00, 0.00, 0.00, 0.00, 0.00, 0.000, 0.000, 0.000, 14:28:57.260, 1596054537260
68, 6847.70, 0.00, 2512.27, 0.00, 0.00, 0.00, 0.00, 0.00, 0.000, 0.000, 0.000, 14:28:57.260, 1596054537260
69, 7032.17, 0.00, 2635.87, 0.00, 0.00, 0.00, 0.00, 0.00, 0.000, 0.000, 0.000, 14:28:57.274, 1596054537274
70, 7076.29, 0.00, 2681.81, 0.00, 0.00, 0.00, 0.00, 0.00, 0.000, 0.000, 0.000, 14:28:57.274, 1596054537274
71, 7024.88, 0.00, 2693.23, 0.00, 0.00, 0.00, 0.00, 0.00, 0.000, 0.000, 0.000, 14:28:57.274, 1596054537274
72, 7102.18, 0.00, 2775.04, 0.00, 0.00, 0.00, 0.00, 0.00, 0.030, -0.044, 0.972, 14:28:57.275, 1596054537275
73, 7265.59, 0.00, 2878.70, 0.00, 0.00, 0.00, 0.00, 0.00, 0.000, 0.000, 0.000, 14:28:57.289, 1596054537289
74, 7330.68, 0.00, 2928.59, 0.00, 0.00, 0.00, 0.00, 0.00, 0.000, 0.000, 0.000, 14:28:57.289, 1596054537289
75, 7271.56, 0.00, 2928.73, 0.00, 0.00, 0.00, 0.00, 0.00, 0.000, 0.000, 0.000, 14:28:57.289, 1596054537289
76, 7294.92, 0.00, 2973.50, 0.00, 0.00, 0.00, 0.00, 0.00, 0.000, 0.000, 0.000, 14:28:57.304, 1596054537304
77, 7470.53, 0.00, 3093.46, 0.00, 0.00, 0.00, 0.00, 0.00, 0.000, 0.000, 0.000, 14:28:57.304, 1596054537304
78, 7577.11, 0.00, 3169.12, 0.00, 0.00, 0.00, 0.00, 0.00, 0.000, 0.000, 0.000, 14:28:57.304, 1596054537304
79, 7503.21, 0.00, 3148.06, 0.00, 0.00, 0.00, 0.00, 0.00, 0.000, 0.000, 0.000, 14:28:57.304, 1596054537304
80, 7486.94, 0.00, 3168.72, 0.00, 0.00, 0.00, 0.00, 0.00, 0.000, 0.000, 0.000, 14:28:57.319, 1596054537319
81, 7643.31, 0.00, 3277.24, 0.00, 0.00, 0.00, 0.00, 0.00, 0.000, 0.000, 0.000, 14:28:57.319, 1596054537319
82, 7760.21, 0.00, 3349.77, 0.00, 0.00, 0.00, 0.00, 0.00, 0.030, -0.052, 0.976, 14:28:57.319, 1596054537319
83, 7710.10, 0.00, 3342.01, 0.00, 0.00, 0.00, 0.00, 0.00, 0.000, 0.000, 0.000, 14:28:57.319, 1596054537319
84, 7676.93, 0.00, 3358.22, 0.00, 0.00, 0.00, 0.00, 0.00, 0.000, 0.000, 0.000, 14:28:57.335, 1596054537335
85, 7803.57, 0.00, 3447.89, 0.00, 0.00, 0.00, 0.00, 0.00, 0.000, 0.000, 0.000, 14:28:57.335, 1596054537335
86, 7914.98, 0.00, 3505.51, 0.00, 0.00, 0.00, 0.00, 0.00, 0.000, 0.000, 0.000, 14:28:57.335, 1596054537335
87, 7884.31, 0.00, 3504.55, 0.00, 0.00, 0.00, 0.00, 0.00, 0.000, 0.000, 0.000, 14:28:57.335, 1596054537335
